**HEADER
RELEASE   Release of TYDEX-Format                 1.3
MEASID    Measurement ID                          cvert_2p7_13fz342_P00cam0_110194_02
SUPPLIER  Data Supplier                           ika-fka / SteiReP / friederichs
DATE      Date                                    30/01/20
CLCKTIME  Clocktime                               14:07

**COMMENTS
------------------------------------
Bridgestone Potenza S001 MO 245/50R18 100W DOT4918
Vertical tyre stiffness on flat surface at 0 deg camber
------------------------------------

**CONSTANTS
LOCATION  Location                      -         ika-fka, Aachen
MANUFACT  Tyre brand name               -         Bridgestone
IDENTITY  Commercial name               -         Potenza S001 MO
INFLPRES  Inflation Pressure            bar       2.7
TYREMASS  Tyre mass                     kg        11.95
OVALLDIA  Measured outside diameter     m         0.708
NOMDIAME  Nominal diameter of tyre      m         0.7022
NOMWIDTH  Nominal section width of tyre m         0.245
ASPRATIO  Nominal aspect ratio          -         0.5
SPEEDSYM  Speed symbol                  -         W
LOADIND   Load index                    -         100
TYROTIN   Tyre rot. inertia about YC    kgm2      1.233
RIMDIAME  Nominal rim diameter          m         0.4572
RIMWIDTH  Rim width                     m         0.2032
RIMROTIN  Rim rotational inertia        kgm2      0.386
TESTRIG   Test rig                      -         Stiffness Tyre Test Rig
CURVTRSF  Curvature of track surface    1/m       0
TRCKSURF  Surface of Track              -         Korund P80
TRCKCOND  Condition of Track Surface    -         dry
SLIPANGL  Slip angle                    deg       0
INCLANGL  Inclination angle             deg       0
LONGVEL   Longitudinal velocity         m/s       0

**MEASURCHANNELS
RUNTIME   Running Time                  s         1         0         0
FZW       Vertical Force                N         1         0         0
INCLANGL  Inclination angle             deg       1         0         0
TYREDEFW  Tyre deflection               mm        1         0         0
DSTGRWHC  Dist. ground - WHL. centre    mm        1         0         0
TRDTEMP   Tread Surface Temperature     deg C     1         0         0

**MEASURDATA
0         -0.00583632 0.00023192 -0.000678181 355.05    22.2489   
0.1       0.978067  0.00023192 0.113651  354.935   22.2521   
0.2       1.10419   0.00023192 0.234955  354.814   22.2468   
0.3       9.99818   0.00023192 0.366297  354.683   22.243    
0.4       20.5197   0.00023192 0.489446  354.56    22.2664   
0.5       39.4579   0.00023192 0.605033  354.444   22.2427   
0.6       54.0331   0.00023192 0.709988  354.339   22.2363   
0.7       66.9935   0.00023192 0.809586  354.24    22.2417   
0.8       84.8743   0.00023192 0.915664  354.133   22.2441   
0.9       99.289    0.00023192 1.01503   354.034   22.2507   
1         114.564   0.00023192 1.12425   353.925   22.2419   
1.1       135.504   0.00023192 1.24733   353.802   22.2427   
1.2       152.328   0.00023192 1.39224   353.657   22.2517   
1.3       184.759   0.00023192 1.56554   353.484   22.2427   
1.4       221.687   0.00023192 1.75323   353.296   22.2419   
1.5       254.017   0.00023192 1.94604   353.103   22.2416   
1.6       293.99    0.00023192 2.14647   352.903   22.2378   
1.7       331.727   0.00023192 2.34243   352.707   22.2448   
1.8       373.982   0.00023192 2.54668   352.502   22.2403   
1.9       422.026   0.00023192 2.74513   352.304   22.2371   
2         461.881   0.00023192 2.93994   352.109   22.243    
2.1       503.02    0.00023192 3.13253   351.917   22.2405   
2.2       540.888   0.00023192 3.32601   351.723   22.2403   
2.3       590.376   0.00023192 3.52776   351.521   22.2443   
2.4       631.991   0.00023192 3.71523   351.334   22.2402   
2.5       671.724   0.00023192 3.89683   351.152   22.2433   
2.6       714.231   0.00023192 4.07253   350.977   22.2485   
2.7       755.132   0.00023192 4.25513   350.794   22.2534   
2.8       798.131   0.00023192 4.43778   350.611   22.2359   
2.9       839.016   0.00023192 4.6202    350.429   22.2397   
3         881.791   0.00023192 4.79547   350.254   22.2438   
3.1       922.477   0.00023192 4.97423   350.075   22.2424   
3.2       958.307   0.00023192 5.15828   349.891   22.2424   
3.3       1001.76   0.00023192 5.34286   349.706   22.2394   
3.4       1049.85   0.00023192 5.52021   349.529   22.25     
3.5       1091.14   0.00023192 5.69466   349.354   22.241    
3.6       1132.39   0.00023192 5.86603   349.183   22.2515   
3.7       1171.53   0.00023192 6.03492   349.014   22.2419   
3.8       1214.52   0.00023192 6.21198   348.837   22.232    
3.9       1255.66   0.00023192 6.3825    348.667   22.2481   
4         1299.04   0.00023192 6.55443   348.495   22.2413   
4.1       1336.7    0.00023192 6.73002   348.319   22.2444   
4.2       1382.2    0.00023192 6.91825   348.131   22.2425   
4.3       1430.37   0.00023192 7.09283   347.956   22.2441   
4.4       1467.44   0.00023192 7.25836   347.791   22.2381   
4.5       1512.55   0.00023192 7.43234   347.617   22.2439   
4.6       1552.34   0.00023192 7.60118   347.448   22.2521   
4.7       1598.59   0.00023192 7.77719   347.272   22.244    
4.8       1638.41   0.00023192 7.93997   347.109   22.2404   
4.9       1678.05   0.00023192 8.09688   346.952   22.2464   
5         1720.17   0.00023192 8.26369   346.785   22.2455   
5.1       1762.77   0.00023192 8.4273    346.622   22.2425   
5.2       1802.85   0.00023192 8.58943   346.46    22.2456   
5.3       1845.03   0.00023192 8.75711   346.292   22.2425   
5.4       1885.18   0.00023192 8.92251   346.127   22.2396   
5.5       1933.31   0.00023192 9.08663   345.962   22.2458   
5.6       1970.94   0.00023192 9.23561   345.813   22.2498   
5.7       2006.02   0.00023192 9.3931    345.656   22.242    
5.8       2049.95   0.00023192 9.55623   345.493   22.2513   
5.9       2086.98   0.00023192 9.71587   345.333   22.2402   
6         2133.25   0.00023192 9.87745   345.172   22.2419   
6.1       2171.08   0.00023192 10.0282   345.021   22.2442   
6.2       2208.55   0.00023192 10.1856   344.864   22.2408   
6.3       2247.53   0.00023192 10.34     344.709   22.2495   
6.4       2291.62   0.00023192 10.4918   344.557   22.2446   
6.5       2331.34   0.00023192 10.6373   344.412   22.251    
6.6       2368.7    0.00023192 10.7896   344.26    22.2348   
6.7       2407.35   0.00023192 10.9413   344.108   22.241    
6.8       2441.34   0.00023192 11.0957   343.953   22.2424   
6.9       2485.29   0.00023192 11.2608   343.788   22.2416   
7         2528.9    0.00023192 11.419    343.63    22.2435   
7.1       2567.78   0.00023192 11.575    343.474   22.248    
7.2       2609.75   0.00023192 11.7301   343.319   22.2427   
7.3       2648.53   0.00023192 11.8799   343.169   22.2626   
7.4       2688.49   0.00023192 12.0366   343.013   22.2462   
7.5       2728.4    0.00023192 12.1905   342.859   22.2408   
7.6       2765.99   0.00023192 12.3457   342.703   22.2502   
7.7       2809.74   0.00023192 12.5056   342.543   22.2514   
7.8       2849.1    0.00023192 12.6602   342.389   22.2587   
7.9       2892.4    0.00023192 12.8157   342.233   22.2505   
8         2926.22   0.00023192 12.9626   342.087   22.2412   
8.1       2970.54   0.00023192 13.1199   341.929   22.2471   
8.2       3006.76   0.00023192 13.2787   341.77    22.2467   
8.3       3049.18   0.00023192 13.45     341.599   22.2475   
8.4       3096.92   0.00023192 13.6218   341.427   22.2525   
8.5       3142.69   0.00023192 13.7862   341.263   22.2401   
8.6       3182.86   0.00023192 13.9478   341.101   22.2425   
8.7       3229.93   0.00023192 14.1046   340.945   22.242    
8.8       3267.11   0.00023192 14.2553   340.794   22.2431   
8.9       3306.17   0.00023192 14.4135   340.636   22.2484   
9         3353.38   0.00023192 14.5622   340.487   22.2664   
9.1       3386.29   0.00023192 14.7108   340.338   22.258    
9.2       3427      0.00023192 14.8678   340.181   22.2436   
9.3       3467.97   0.00023192 15.0204   340.029   22.2411   
9.4       3509.06   0.00023192 15.1737   339.875   22.2369   
9.5       3548.96   0.00023192 15.3236   339.725   22.2501   
9.6       3590.25   0.00023192 15.4781   339.571   22.2443   
9.7       3629.46   0.00023192 15.6248   339.424   22.2385   
9.8       3667.77   0.00023192 15.7708   339.278   22.2389   
9.9       3706.11   0.00023192 15.9227   339.126   22.2624   
10        3752.75   0.00023192 16.0757   338.973   22.2607   
10.1      3792.67   0.00023192 16.2305   338.819   22.2356   
10.2      3834.37   0.00023192 16.3787   338.67    22.2424   
10.3      3872.94   0.00023192 16.5243   338.525   22.2555   
10.4      3910.94   0.00023192 16.6715   338.378   22.2641   
10.5      3948.76   0.00023192 16.8263   338.223   22.2401   
10.6      3992.47   0.00023192 16.9788   338.07    22.2462   
10.7      4031.17   0.00023192 17.1278   337.921   22.2747   
10.8      4073.02   0.00023192 17.2849   337.764   22.249    
10.9      4113.73   0.00023192 17.4302   337.619   22.2472   
11        4148.26   0.00023192 17.5827   337.466   22.2516   
11.1      4194.82   0.00023192 17.7402   337.309   22.2467   
11.2      4237.4    0.00023192 17.8883   337.161   22.2462   
11.3      4275.76   0.00023192 18.034    337.015   22.2534   
11.4      4312.33   0.00023192 18.1761   336.873   22.2707   
11.5      4354.44   0.00023192 18.3246   336.725   22.2437   
11.6      4392.38   0.00023192 18.4766   336.572   22.2447   
11.7      4435.51   0.00023192 18.6249   336.424   22.2496   
11.8      4473.84   0.00023192 18.7721   336.277   22.2512   
11.9      4511.75   0.00023192 18.9163   336.133   22.2701   
12        4553.41   0.00023192 19.0701   335.979   22.2468   
12.1      4596.35   0.00023192 19.2166   335.833   22.2423   
12.2      4633.86   0.00023192 19.3615   335.688   22.2453   
12.3      4669.27   0.00023192 19.5101   335.539   22.2493   
12.4      4713.43   0.00023192 19.6605   335.389   22.244    
12.5      4756.79   0.00023192 19.813    335.236   22.2434   
12.6      4796.35   0.00023192 19.9556   335.094   22.2516   
12.7      4833.15   0.00023192 20.1023   334.947   22.2519   
12.8      4876.01   0.00023192 20.2537   334.795   22.2586   
12.9      4918.25   0.00023192 20.3971   334.652   22.2746   
13        4949.93   0.00023192 20.5359   334.513   22.2425   
13.1      4990.51   0.00023192 20.6858   334.363   22.2431   
13.2      5034.31   0.00023192 20.8367   334.212   22.2551   
13.3      5074.98   0.00023192 20.985    334.064   22.2601   
13.4      5115.32   0.00023192 21.1295   333.92    22.2376   
13.5      5151.49   0.00023192 21.2753   333.774   22.2463   
13.6      5195.14   0.00023192 21.4256   333.623   22.2447   
13.7      5233.64   0.00023192 21.5702   333.479   22.2535   
13.8      5272.86   0.00023192 21.7146   333.334   22.2398   
13.9      5313.64   0.00023192 21.8614   333.188   22.267    
14        5352.67   0.00023192 22.0079   333.041   22.2469   
14.1      5396.07   0.00023192 22.1511   332.898   22.24     
14.2      5432.34   0.00023192 22.2948   332.754   22.2439   
14.3      5474.41   0.00023192 22.4453   332.604   22.2393   
14.4      5516.1    0.00023192 22.5956   332.453   22.2427   
14.5      5557      0.00023192 22.7418   332.307   22.2435   
14.6      5598.13   0.00023192 22.8914   332.158   22.2845   
14.7      5639.84   0.00023192 23.0416   332.008   22.2692   
14.8      5677.19   0.00023192 23.1831   331.866   22.2536   
14.9      5718.27   0.00023192 23.3325   331.717   22.2638   
15        5764.57   0.00023192 23.4834   331.566   22.2407   
15.1      5803.74   0.00023192 23.6271   331.422   22.2411   
15.2      5840.19   0.00023192 23.7717   331.277   22.2436   
15.3      5883.53   0.00023192 23.916    331.133   22.2372   
15.4      5921.59   0.00023192 24.0555   330.994   22.2492   
15.5      5961.06   0.00023192 24.1998   330.849   22.2895   
15.6      5999.84   0.00023192 24.3419   330.707   22.262    
15.7      6044.92   0.00023192 24.4909   330.558   22.2435   
15.8      6080      0.00023192 24.6301   330.419   22.2442   
15.9      6123.84   0.00023192 24.775    330.274   22.2446   
16        6162.57   0.00023192 24.9113   330.138   22.2502   
16.1      6199.46   0.00023192 25.0534   329.996   22.2495   
16.2      6241.45   0.00023192 25.202    329.847   22.2488   
16.3      6283.11   0.00023192 25.3434   329.706   22.2472   
16.4      6320.99   0.00023192 25.4821   329.567   22.2494   
16.5      6359.93   0.00023192 25.6202   329.429   22.2405   
16.6      6402.68   0.00023192 25.7647   329.284   22.2622   
16.7      6441.62   0.00023192 25.9071   329.142   22.2405   
16.8      6481.68   0.00023192 26.0428   329.006   22.2373   
16.9      6517.56   0.00023192 26.1818   328.867   22.2494   
17        6554.92   0.00023192 26.3262   328.723   22.258    
17.1      6604.01   0.00023192 26.4706   328.578   22.2901   
17.2      6641.61   0.00023192 26.6134   328.436   22.2861   
17.3      6680.51   0.00023192 26.7529   328.296   22.2504   
17.4      6723.54   0.00023192 26.8947   328.154   22.24     
17.5      6760.64   0.00023192 27.0314   328.018   22.2427   
17.6      6796.33   0.00023192 27.1682   327.881   22.2458   
17.7      6843.68   0.00023192 27.3116   327.738   22.2332   
17.8      6878.87   0.00023192 27.4442   327.605   22.2423   
17.9      6916.67   0.00023192 27.5879   327.461   22.2487   
18        6960.02   0.00023192 27.7311   327.318   22.2451   
18.1      7001.4    0.00023192 27.8744   327.175   22.2448   
18.2      7044.78   0.00023192 28.0125   327.037   22.2425   
18.3      7078.4    0.00023192 28.1387   326.91    22.2491   
18.4      7116.12   0.00023192 28.2599   326.789   22.2517   
18.5      7145.48   0.000231832 28.3842   326.665   22.2469   
18.6      7183.8    0.000231972 28.522    326.527   22.2525   
18.7      7223.96   0.000231718 28.6589   326.39    22.246    
18.8      7264.64   0.00023214 28.8027   326.246   22.2412   
18.9      7301.74   0.000231473 28.9418   326.107   22.2297   
19        7345.3    0.000232502 29.0842   325.965   22.2461   
19.1      7388.87   0.000230905 29.2284   325.821   22.2477   
19.2      7425.98   0.000233528 29.3639   325.685   22.236    
19.3      7469.7    0.00022839 29.5013   325.548   22.2365   
19.4      7504.39   0.000249755 29.6313   325.418   22.2401   
19.5      7539.75   0.000343885 29.7606   325.289   22.2435   
19.6      7581.66   0.000348056 29.8988   325.15    22.2383   
19.7      7622.04   0.000348057 30.038    325.011   22.2532   
19.8      7660.29   0.000347788 30.1729   324.876   22.2454   
19.9      7701.69   0.000348001 30.3128   324.736   22.2422   
20        7740.96   0.000347875 30.4547   324.594   22.2529   
20.1      7782.98   0.000347931 30.5945   324.455   22.2411   
20.2      7826.32   0.000347921 30.7288   324.32    22.2426   
20.3      7862.87   0.000347906 30.8675   324.182   22.2571   
20.4      7905.76   0.00034793 31.0101   324.039   22.2531   
20.5      7948.14   0.000347874 31.1535   323.896   22.2526   
20.6      7990.94   0.000347874 31.2933   323.756   22.2512   
20.7      8025.84   0.000347874 31.4252   323.624   22.2428   
20.8      8064.31   0.000347874 31.558    323.491   22.2704   
20.9      8104.04   0.000347874 31.6962   323.353   22.2507   
21        8141.39   0.000347874 31.8377   323.211   22.2462   
21.1      8189.29   0.000347874 31.9837   323.065   22.2439   
21.2      8227.24   0.000347874 32.1263   322.923   22.2531   
21.3      8272.27   0.000347874 32.266    322.783   22.2507   
21.4      8308.73   0.000347874 32.4057   322.643   22.2403   
21.5      8350.61   0.000347874 32.5515   322.498   22.2434   
21.6      8395.82   0.000347874 32.6996   322.35    22.2416   
21.7      8434.83   0.000347874 32.8415   322.208   22.2447   
21.8      8483.38   0.000347874 32.9878   322.061   22.2556   
21.9      8524.66   0.000347874 33.1229   321.926   22.252    
22        8560      0.000347874 33.2534   321.796   22.2772   
22.1      8599.31   0.000347873 33.3909   321.658   22.2545   
22.2      8641.2    0.000347873 33.53     321.519   22.2541   
22.3      8675.17   0.000347873 33.6667   321.382   22.2708   
22.4      8717.38   0.000347873 33.8087   321.24    22.2369   
22.5      8762.79   0.000347873 33.957    321.092   22.2476   
22.6      8807.21   0.000347873 34.0995   320.95    22.2624   
22.7      8850.77   0.000347873 34.2442   320.805   22.2498   
22.8      8891.79   0.000347873 34.3818   320.667   22.235    
22.9      8926.77   0.000347873 34.5169   320.532   22.2427   
23        8974.19   0.000347873 34.6594   320.39    22.2328   
23.1      9015.15   0.000347873 34.7948   320.254   22.2481   
23.2      9047.22   0.000347873 34.9251   320.124   22.2418   


**END