**HEADER
RELEASE   Release of TYDEX-Format                 1.3
MEASID    Measurement ID                          bottoming_2p7_40fz000_P00cam0_110186_01
SUPPLIER  Data Supplier                           ika-fka / SteiReP / friederichs
DATE      Date                                    30/01/20
CLCKTIME  Clocktime                               14:07

**COMMENTS
------------------------------------
Bridgestone Potenza S001 MO 245/50R18 100W DOT4918
Bottoming test on flat surface at 0 deg camber
------------------------------------

**CONSTANTS
LOCATION  Location                      -         ika-fka, Aachen
MANUFACT  Tyre brand name               -         Bridgestone
IDENTITY  Commercial name               -         Potenza S001 MO
INFLPRES  Inflation Pressure            bar       2.7
TYREMASS  Tyre mass                     kg        11.95
OVALLDIA  Measured outside diameter     m         0.708
NOMDIAME  Nominal diameter of tyre      m         0.7022
NOMWIDTH  Nominal section width of tyre m         0.245
ASPRATIO  Nominal aspect ratio          -         0.5
SPEEDSYM  Speed symbol                  -         W
LOADIND   Load index                    -         100
TYROTIN   Tyre rot. inertia about YC    kgm2      1.233
RIMDIAME  Nominal rim diameter          m         0.4572
RIMWIDTH  Rim width                     m         0.2032
RIMROTIN  Rim rotational inertia        kgm2      0.386
TESTRIG   Test rig                      -         Stiffness Tyre Test Rig
CURVTRSF  Curvature of track surface    1/m       0
TRCKSURF  Surface of Track              -         Korund P80
TRCKCOND  Condition of Track Surface    -         dry
SLIPANGL  Slip angle                    deg       0
INCLANGL  Inclination angle             deg       0
LONGVEL   Longitudinal velocity         m/s       0

**MEASURCHANNELS
RUNTIME   Running Time                  s         1         0         0
FZW       Vertical Force                N         1         0         0
INCLANGL  Inclination angle             deg       1         0         0
TYREDEFW  Tyre deflection               mm        1         0         0
DSTGRWHC  Dist. ground - WHL. centre    mm        1         0         0
TRDTEMP   Tread Surface Temperature     deg C     1         0         0

**MEASURDATA
0         -35.9571  0.0112483 0.0992162 354.611   22.5907   
0.1       -30.3881  0.0112483 0.0603514 354.65    22.5759   
0.2       -28.5644  0.0112483 0.0938881 354.616   22.5946   
0.3       -33.0127  0.0112483 0.174651  354.536   22.5885   
0.4       -27.6394  0.0112483 0.303847  354.406   22.6387   
0.5       -15.6581  0.0112483 0.454834  354.255   22.6191   
0.6       2.81279   0.0112483 0.631234  354.079   22.5666   
0.7       21.8495   0.0112483 0.829264  353.881   22.6634   
0.8       57.6566   0.0112483 1.03678   353.673   22.7514   
0.9       88.901    0.0112483 1.24784   353.462   22.739    
1         122.072   0.0112483 1.46868   353.242   22.7467   
1.1       164.95    0.0112483 1.68766   353.023   22.736    
1.2       210.07    0.0112483 1.90824   352.802   22.74     
1.3       256.502   0.0112483 2.11846   352.592   22.7409   
1.4       301.981   0.0112483 2.33003   352.38    22.7228   
1.5       347.041   0.0112483 2.53737   352.173   22.7473   
1.6       392.853   0.0112483 2.74312   351.967   22.697    
1.7       433.129   0.0112483 2.94229   351.768   22.6143   
1.8       480.469   0.0112483 3.1441    351.566   22.5687   
1.9       527.459   0.0112483 3.34223   351.368   22.6046   
2         573.582   0.0112483 3.53257   351.178   22.6066   
2.1       616.432   0.0112483 3.71625   350.994   22.522    
2.2       660.288   0.0112483 3.90468   350.806   22.5841   
2.3       709.779   0.0112483 4.09611   350.614   22.6272   
2.4       749.631   0.0112483 4.27807   350.432   22.5594   
2.5       788.414   0.0112483 4.46537   350.245   22.5877   
2.6       837.672   0.0112483 4.65242   350.058   22.5707   
2.7       874.559   0.0112483 4.83452   349.876   22.5855   
2.8       916.305   0.0112483 5.01742   349.693   22.643    
2.9       962.64    0.0112483 5.19839   349.512   22.6003   
3         999.075   0.0112483 5.3768    349.333   22.6339   
3.1       1047.54   0.0112483 5.56016   349.15    22.764    
3.2       1089.99   0.0112483 5.73477   348.975   22.7243   
3.3       1122.96   0.0112483 5.90964   348.801   22.743    
3.4       1175.58   0.0112483 6.0868    348.623   22.7331   
3.5       1216.04   0.0112483 6.25587   348.454   22.7289   
3.6       1257.53   0.0112483 6.42069   348.29    22.7369   
3.7       1293      0.0112483 6.59337   348.117   22.7444   
3.8       1335.92   0.0112483 6.76486   347.945   22.7277   
3.9       1382.58   0.0112483 6.9354    347.775   22.7419   
4         1424.61   0.0112483 7.10272   347.607   22.7361   
4.1       1464.95   0.0112483 7.26825   347.442   22.7344   
4.2       1501.91   0.0112483 7.43602   347.274   22.7303   
4.3       1548.11   0.0112483 7.60288   347.107   22.7393   
4.4       1588.51   0.0112483 7.76905   346.941   22.7417   
4.5       1629.48   0.0112483 7.93115   346.779   22.7343   
4.6       1673.3    0.0112483 8.09825   346.612   22.7325   
4.7       1712.23   0.0112483 8.26164   346.449   22.7268   
4.8       1756.11   0.0112483 8.42578   346.284   22.7407   
4.9       1797.39   0.0112483 8.58847   346.122   22.7322   
5         1833.56   0.0112483 8.75131   345.959   22.7349   
5.1       1878.94   0.0112483 8.91649   345.794   22.7227   
5.2       1916.9    0.0112483 9.07908   345.631   22.7562   
5.3       1959.63   0.0112483 9.24471   345.466   22.6547   
5.4       2004.83   0.0112483 9.40601   345.304   22.5369   
5.5       2048.34   0.0112483 9.56463   345.146   22.5828   
5.6       2087.43   0.0112483 9.72422   344.986   22.5729   
5.7       2125.48   0.0112483 9.88329   344.827   22.6557   
5.8       2165.22   0.0112483 10.0468   344.663   22.5694   
5.9       2208.75   0.0112483 10.2072   344.503   22.5772   
6         2248.77   0.0112483 10.3646   344.346   22.5402   
6.1       2292.37   0.0112483 10.5267   344.184   22.5645   
6.2       2332.63   0.0112483 10.6838   344.026   22.6001   
6.3       2371.75   0.0112483 10.8374   343.873   22.5919   
6.4       2410.16   0.0112483 10.9852   343.725   22.5887   
6.5       2454.02   0.0112483 11.132    343.578   22.5805   
6.6       2487.14   0.0112483 11.2828   343.427   22.5964   
6.7       2526.8    0.0112483 11.4335   343.277   22.6287   
6.8       2566.54   0.0112483 11.586    343.124   22.6074   
6.9       2603.06   0.0112483 11.7385   342.972   22.6168   
7         2644.52   0.0112483 11.8919   342.818   22.6026   
7.1       2684.74   0.0112483 12.0452   342.665   22.6108   
7.2       2725.66   0.0112483 12.1992   342.511   22.6031   
7.3       2763.31   0.0112483 12.3602   342.35    22.6282   
7.4       2806.77   0.0112483 12.5181   342.192   22.6428   
7.5       2845.1    0.0112483 12.6775   342.033   22.5719   
7.6       2891.77   0.0112483 12.8396   341.871   22.6082   
7.7       2930.5    0.0112483 12.9965   341.714   22.615    
7.8       2971.59   0.0112483 13.1503   341.56    22.5634   
7.9       3013.66   0.0112483 13.3018   341.408   22.616    
8         3047.78   0.0112483 13.4605   341.25    22.5876   
8.1       3092.49   0.0112483 13.6241   341.086   22.6367   
8.2       3139.53   0.0112483 13.7815   340.929   22.5274   
8.3       3177.52   0.0112483 13.9334   340.777   22.591    
8.4       3219.32   0.0112483 14.0852   340.625   22.576    
8.5       3259.82   0.0112483 14.241    340.469   22.6009   
8.6       3299.08   0.0112483 14.3923   340.318   22.5665   
8.7       3336.06   0.0112483 14.5465   340.164   22.5554   
8.8       3384.14   0.0112483 14.7024   340.008   22.6054   
8.9       3421.14   0.0112483 14.8558   339.854   22.6086   
9         3460.28   0.0112483 15.0128   339.697   22.5641   
9.1       3503.24   0.0112483 15.1661   339.544   22.5661   
9.2       3546.23   0.0112483 15.3194   339.391   22.6066   
9.3       3581.73   0.0112483 15.47     339.24    22.573    
9.4       3620.83   0.0112483 15.6257   339.085   22.6097   
9.5       3662.55   0.0112483 15.7812   338.929   22.6183   
9.6       3704.01   0.0112483 15.9366   338.774   22.6023   
9.7       3742.94   0.0112483 16.0925   338.618   22.6308   
9.8       3788.88   0.0112483 16.2452   338.465   22.5929   
9.9       3831.45   0.0112483 16.3974   338.313   22.6168   
10        3873.51   0.0112483 16.5533   338.157   22.5954   
10.1      3915.87   0.0112483 16.6992   338.011   22.5661   
10.2      3953.98   0.0112483 16.8459   337.864   22.6225   
10.3      3991.99   0.0112483 16.9992   337.711   22.5518   
10.4      4032.16   0.0112483 17.1502   337.56    22.633    
10.5      4068.92   0.0112483 17.3055   337.405   22.5644   
10.6      4113.45   0.0112483 17.4565   337.254   22.6393   
10.7      4153.5    0.0112483 17.6082   337.102   22.612    
10.8      4193.88   0.0112483 17.7586   336.952   22.5727   
10.9      4228.11   0.0112483 17.9101   336.8     22.6027   
11        4273.56   0.0112483 18.0648   336.645   22.574    
11.1      4318.99   0.0112483 18.216    336.494   22.6646   
11.2      4359.34   0.0112483 18.3678   336.342   22.6033   
11.3      4401.82   0.0112483 18.5186   336.192   22.6063   
11.4      4438.29   0.0112483 18.6735   336.037   22.5823   
11.5      4480.73   0.0112483 18.831    335.879   22.6162   
11.6      4522.76   0.0112483 18.9857   335.725   22.6511   
11.7      4568.01   0.0112483 19.1363   335.574   22.6001   
11.8      4607.83   0.0112483 19.2864   335.424   22.6728   
11.9      4646.4    0.0112483 19.4383   335.272   22.5843   
12        4687.41   0.0112483 19.5912   335.119   22.6188   
12.1      4732.85   0.0112483 19.7438   334.966   22.5931   
12.2      4773.35   0.0112483 19.8905   334.82    22.5773   
12.3      4810.51   0.0112483 20.0375   334.673   22.5997   
12.4      4850.32   0.0112483 20.1831   334.527   22.5757   
12.5      4885.59   0.0112483 20.3296   334.381   22.591    
12.6      4928.49   0.0112483 20.4809   334.229   22.6426   
12.7      4969.74   0.0112483 20.6314   334.079   22.6042   
12.8      5011.76   0.0112483 20.7786   333.932   22.6069   
12.9      5052.55   0.0112483 20.9285   333.782   22.6035   
13        5093.21   0.0112483 21.0783   333.632   22.5981   
13.1      5131.56   0.0112483 21.2235   333.487   22.61     
13.2      5176.8    0.0112483 21.3668   333.343   22.5896   
13.3      5218.94   0.0112483 21.5123   333.198   22.5975   
13.4      5253.27   0.0112483 21.6624   333.048   22.5709   
13.5      5295.19   0.0112483 21.8131   332.897   22.6618   
13.6      5337.9    0.0112483 21.9653   332.745   22.6342   
13.7      5378.78   0.0112482 22.1157   332.594   22.5512   
13.8      5418.01   0.0112485 22.2657   332.445   22.6348   
13.9      5461.35   0.0112479 22.4167   332.294   22.5899   
14        5503.92   0.0112489 22.5629   332.147   22.5402   
14.1      5543.64   0.0112473 22.7124   331.998   22.5981   
14.2      5582.96   0.0112499 22.8606   331.85    22.572    
14.3      5628.59   0.0112459 23.0071   331.703   22.5619   
14.4      5668.45   0.0112523 23.1571   331.553   22.5697   
14.5      5711.49   0.0112406 23.305    331.405   22.5739   
14.6      5749.42   0.0112796 23.4512   331.259   22.5899   
14.7      5788.06   0.011372  23.5968   331.113   22.5707   
14.8      5828.35   0.0113603 23.7469   330.963   22.6063   
14.9      5872.59   0.0113668 23.8965   330.814   22.5638   
15        5912.51   0.0113628 24.0425   330.668   22.5755   
15.1      5952.41   0.0113653 24.1956   330.515   22.6083   
15.2      5998.86   0.0113637 24.3408   330.369   22.6238   
15.3      6037.53   0.0113647 24.4869   330.223   22.626    
15.4      6078.96   0.0113641 24.6334   330.077   22.6005   
15.5      6117.12   0.0113644 24.7748   329.935   22.5685   
15.6      6158.03   0.0113643 24.9197   329.791   22.5501   
15.7      6200.09   0.0113643 25.0657   329.645   22.5702   
15.8      6236.65   0.0113643 25.2068   329.503   22.5748   
15.9      6278.83   0.0113643 25.3551   329.355   22.6115   
16        6324.58   0.0113643 25.498    329.212   22.5529   
16.1      6363.98   0.0113643 25.6429   329.067   22.5856   
16.2      6404.23   0.0113643 25.7821   328.928   22.6251   
16.3      6443.87   0.0113643 25.9213   328.789   22.6177   
16.4      6478.98   0.0113643 26.0664   328.644   22.5719   
16.5      6517.18   0.0113643 26.2128   328.497   22.585    
16.6      6564.03   0.0113643 26.3604   328.35    22.605    
16.7      6602.47   0.0113643 26.5039   328.206   22.5662   
16.8      6644.21   0.0113643 26.6483   328.062   22.5695   
16.9      6687.86   0.0113643 26.7908   327.919   22.5961   
17        6730.69   0.0113643 26.9294   327.781   22.6207   
17.1      6766.8    0.0113643 27.0675   327.643   22.5592   
17.2      6802.14   0.0113643 27.212    327.498   22.6002   
17.3      6844.39   0.0113643 27.358    327.352   22.602    
17.4      6885.57   0.0113643 27.4988   327.211   22.618    
17.5      6930.44   0.0113643 27.6435   327.067   22.5917   
17.6      6971.25   0.0113643 27.783    326.927   22.6586   
17.7      7012.68   0.0113643 27.9232   326.787   22.6319   
17.8      7050.66   0.0113643 28.064    326.646   22.6453   
17.9      7086.03   0.0113643 28.205    326.505   22.6161   
18        7131.19   0.0113643 28.3473   326.363   22.5818   
18.1      7168.48   0.0113643 28.4891   326.221   22.6275   
18.2      7214.29   0.0113643 28.6309   326.079   22.596    
18.3      7254.74   0.0113643 28.7708   325.939   22.6083   
18.4      7290.14   0.0113643 28.9096   325.801   22.6478   
18.5      7336.88   0.0113643 29.0504   325.66    22.6053   
18.6      7371.37   0.0113643 29.1865   325.524   22.637    
18.7      7413.1    0.0113643 29.3274   325.383   22.603    
18.8      7452.3    0.0113643 29.4696   325.241   22.6099   
18.9      7492.11   0.0113643 29.6097   325.101   22.6506   
19        7535.51   0.0113643 29.7509   324.959   22.5594   
19.1      7573.97   0.0113643 29.8916   324.819   22.5733   
19.2      7614.4    0.0113643 30.0345   324.676   22.6138   
19.3      7657.18   0.0113643 30.1733   324.537   22.6393   
19.4      7696.54   0.0113643 30.3115   324.399   22.6067   
19.5      7737.91   0.0113643 30.446    324.264   22.597    
19.6      7775.77   0.0113643 30.5838   324.126   22.585    
19.7      7813.79   0.0113643 30.7239   323.986   22.6237   
19.8      7858.16   0.0113643 30.8665   323.844   22.5906   
19.9      7896.27   0.0113643 31.0077   323.702   22.5625   
20        7937.01   0.0113643 31.145    323.565   22.6176   
20.1      7976      0.0113643 31.2851   323.425   22.5912   
20.2      8017.8    0.0113643 31.4254   323.285   22.5747   
20.3      8064.19   0.0113643 31.5639   323.146   22.6026   
20.4      8098.95   0.0113643 31.6961   323.014   22.6039   
20.5      8138.68   0.0113643 31.8288   322.881   22.6322   
20.6      8177.52   0.0113643 31.9607   322.75    22.6167   
20.7      8214.13   0.0113643 32.0976   322.613   22.5737   
20.8      8253.81   0.0113643 32.2314   322.479   22.5231   
20.9      8291.21   0.0113643 32.3687   322.341   22.5883   
21        8334.05   0.0113643 32.5089   322.201   22.5919   
21.1      8371.71   0.0113643 32.6461   322.064   22.5374   
21.2      8414.26   0.0113643 32.7815   321.929   22.6009   
21.3      8452.85   0.0113643 32.9153   321.795   22.5559   
21.4      8490.78   0.0113643 33.0546   321.656   22.5864   
21.5      8536.53   0.0113643 33.1886   321.522   22.5911   
21.6      8571.44   0.0113643 33.3208   321.389   22.5947   
21.7      8609.59   0.0113643 33.4592   321.251   22.5803   
21.8      8648.77   0.0113643 33.594    321.116   22.5486   
21.9      8689.91   0.0113643 33.7347   320.976   22.5838   
22        8729.83   0.0113643 33.871    320.839   22.5778   
22.1      8772      0.0113643 34.0058   320.704   22.5552   
22.2      8810.96   0.0113643 34.1461   320.564   22.6144   
22.3      8851.33   0.0113643 34.2833   320.427   22.5983   
22.4      8894.85   0.0113643 34.4178   320.292   22.5513   
22.5      8936.33   0.0113643 34.5444   320.166   22.5418   
22.6      8964.62   0.0113643 34.6761   320.034   22.5866   
22.7      9008.51   0.0113643 34.8124   319.898   22.5865   
22.8      9047.26   0.0113643 34.9434   319.767   22.5634   
22.9      9089.68   0.0113643 35.0828   319.627   22.5889   
23        9131.37   0.0113643 35.2156   319.495   22.6337   
23.1      9167.49   0.0113643 35.3509   319.359   22.6098   
23.2      9207.61   0.0113643 35.4881   319.222   22.6076   
23.3      9245.03   0.0113643 35.6243   319.086   22.6317   
23.4      9286.63   0.0113643 35.759    318.951   22.5964   
23.5      9324.01   0.0113643 35.894    318.816   22.6332   
23.6      9364.85   0.0113643 36.0335   318.677   22.5967   
23.7      9411.16   0.0113643 36.1732   318.537   22.5903   
23.8      9455.37   0.0113643 36.3106   318.4     22.5635   
23.9      9488.54   0.0113643 36.4311   318.279   22.6082   
24        9519.01   0.0113643 36.5706   318.14    22.6016   
24.1      9570.36   0.0113643 36.7158   317.994   22.5594   
24.2      9607.2    0.0113643 36.8476   317.863   22.5681   
24.3      9644.57   0.0113643 36.9862   317.724   22.6108   
24.4      9689.63   0.0113643 37.1253   317.585   22.6198   
24.5      9731.93   0.0113643 37.2604   317.45    22.6211   
24.6      9768      0.0113643 37.3961   317.314   22.6056   
24.7      9812.73   0.0113643 37.532    317.178   22.6525   
24.8      9853.49   0.0113643 37.6641   317.046   22.5502   
24.9      9887.75   0.0113643 37.7983   316.912   22.5588   
25        9929.04   0.0113643 37.9363   316.774   22.583    
25.1      9971.38   0.0113643 38.0712   316.639   22.5924   
25.2      10011     0.0113643 38.2045   316.506   22.5791   
25.3      10052     0.0113643 38.3432   316.367   22.5827   
25.4      10090.8   0.0113643 38.4767   316.233   22.5621   
25.5      10131.6   0.0113643 38.6032   316.107   22.599    
25.6      10168.3   0.0113643 38.7322   315.978   22.6315   
25.7      10210.4   0.0113643 38.8575   315.853   22.6515   
25.8      10246     0.0113643 38.9836   315.727   22.6024   
25.9      10285.1   0.0113643 39.1137   315.597   22.5889   
26        10317.8   0.0113643 39.243    315.467   22.7373   
26.1      10358.4   0.0113643 39.3813   315.329   22.7431   
26.2      10403.5   0.0113643 39.5128   315.197   22.7307   
26.3      10444.2   0.0113643 39.6467   315.063   22.7347   
26.4      10483.6   0.0113643 39.7757   314.935   22.7337   
26.5      10520.9   0.0113643 39.9089   314.801   22.7402   
26.6      10560.8   0.0113643 40.0441   314.666   22.7289   
26.7      10597.7   0.0113643 40.178    314.532   22.7429   
26.8      10642.8   0.0113643 40.3198   314.39    22.7374   
26.9      10684.3   0.0113643 40.453    314.257   22.7407   
27        10723     0.0113643 40.5887   314.121   22.7341   
27.1      10768.1   0.0113643 40.7258   313.984   22.7362   
27.2      10805.2   0.0113643 40.8607   313.849   22.7454   
27.3      10848     0.0113643 40.9929   313.717   22.7439   
27.4      10887     0.0113643 41.1244   313.586   22.738    
27.5      10926.4   0.0113642 41.2601   313.45    22.729    
27.6      10968.1   0.0113645 41.3968   313.313   22.7287   
27.7      11006.8   0.0113639 41.531    313.179   22.7383   
27.8      11049.7   0.0113649 41.662    313.048   22.7411   
27.9      11090.4   0.0113633 41.7943   312.916   22.7365   
28        11130.6   0.0113658 41.9282   312.782   22.7374   
28.1      11170.2   0.0113618 42.056    312.654   22.7337   
28.2      11210.7   0.0113682 42.1894   312.521   22.7391   
28.3      11251.7   0.0113565 42.3224   312.388   22.7346   
28.4      11289.3   0.0113968 42.4529   312.257   22.7335   
28.5      11326.7   0.011488  42.5874   312.123   22.7385   
28.6      11367.8   0.0114763 42.7232   311.987   22.7252   
28.7      11413.6   0.0114827 42.8605   311.85    22.7313   
28.8      11456.3   0.0114787 42.9938   311.716   22.7327   
28.9      11496.9   0.0114813 43.121    311.589   22.7303   
29        11532     0.0114797 43.2526   311.458   22.7398   
29.1      11574.9   0.0114807 43.3845   311.326   22.7335   
29.2      11616.9   0.0114801 43.5174   311.193   22.7342   
29.3      11653     0.0114804 43.6474   311.063   22.7439   
29.4      11696.5   0.0114803 43.783    310.927   22.7237   
29.5      11734.3   0.0114803 43.9161   310.794   22.7487   
29.6      11772.9   0.0114803 44.0494   310.661   22.6656   
29.7      11815.6   0.0114803 44.1849   310.525   22.5581   
29.8      11856.6   0.0114803 44.3192   310.391   22.5494   
29.9      11899.4   0.0114803 44.4528   310.257   22.5645   
30        11944.8   0.0114803 44.5842   310.126   22.6234   
30.1      11983.6   0.0114803 44.7121   309.998   22.5222   
30.2      12015.2   0.0114803 44.8447   309.866   22.5698   
30.3      12059.4   0.0114803 44.9821   309.728   22.5982   
30.4      12101     0.0114803 45.1153   309.595   22.5689   
30.5      12146.7   0.0114803 45.2462   309.464   22.6231   
30.6      12185.3   0.0114803 45.3759   309.334   22.5399   
30.7      12222.9   0.0114803 45.5129   309.197   22.5962   
30.8      12264.7   0.0114803 45.6471   309.063   22.5858   
30.9      12306.7   0.0114803 45.7839   308.926   22.5819   
31        12348.6   0.0114803 45.9181   308.792   22.5792   
31.1      12387.2   0.0114803 46.0518   308.658   22.5756   
31.2      12434     0.0114803 46.1816   308.529   22.5618   
31.3      12472.9   0.0114803 46.3094   308.401   22.5869   
31.4      12508.5   0.0114803 46.4407   308.269   22.5993   
31.5      12552.5   0.0114803 46.5774   308.133   22.5254   
31.6      12593.6   0.0114803 46.7117   307.999   22.5565   
31.7      12634.8   0.0114803 46.8443   307.866   22.6264   
31.8      12673.7   0.0114803 46.9787   307.732   22.5717   
31.9      12718.2   0.0114803 47.1118   307.598   22.5542   
32        12760.8   0.0114803 47.2394   307.471   22.5599   
32.1      12798.8   0.0114803 47.3724   307.338   22.5681   
32.2      12838.7   0.0114803 47.5053   307.205   22.5658   
32.3      12881.8   0.0114803 47.6323   307.078   22.6012   
32.4      12915.9   0.0114803 47.7639   306.946   22.5736   
32.5      12954.3   0.0114803 47.8965   306.814   22.5664   
32.6      12994.5   0.0114803 48.03     306.68    22.6069   
32.7      13039.3   0.0114803 48.1616   306.549   22.5687   
32.8      13078.4   0.0114803 48.2882   306.422   22.6106   
32.9      13118.3   0.0114803 48.419    306.291   22.6124   
33        13159.7   0.0114803 48.5444   306.166   22.56     
33.1      13196.7   0.0114803 48.6741   306.036   22.5845   
33.2      13235.2   0.0114803 48.8033   305.907   22.5387   
33.3      13273.3   0.0114803 48.9365   305.774   22.5847   
33.4      13320.6   0.0114803 49.0692   305.641   22.5572   
33.5      13360.2   0.0114803 49.1944   305.516   22.5945   
33.6      13399     0.0114803 49.3209   305.389   22.5299   
33.7      13436.5   0.0114803 49.4475   305.263   22.6148   
33.8      13473.9   0.0114803 49.5747   305.136   22.5576   
33.9      13518.5   0.0114803 49.7023   305.008   22.5403   
34        13556.9   0.0114803 49.8278   304.882   22.5949   
34.1      13591.3   0.0114803 49.9583   304.752   22.5738   
34.2      13636     0.0114803 50.0905   304.62    22.6649   
34.3      13681.9   0.0114803 50.2164   304.494   22.7417   
34.4      13720.3   0.0114803 50.3403   304.37    22.7347   
34.5      13753.1   0.0114803 50.4631   304.247   22.7408   
34.6      13790.4   0.0114803 50.5944   304.116   22.729    
34.7      13834.3   0.0114803 50.722    303.988   22.737    
34.8      13872     0.0114803 50.8527   303.858   22.7362   
34.9      13914.3   0.0114803 50.985    303.725   22.731    
35        13953     0.0114803 51.1136   303.597   22.7515   
35.1      13995.6   0.0114803 51.2408   303.469   22.6799   
35.2      14038.1   0.0114803 51.3692   303.341   22.5382   
35.3      14078.6   0.0114803 51.4945   303.216   22.5742   
35.4      14115.3   0.0114803 51.6246   303.086   22.5769   
35.5      14153.6   0.0114803 51.7519   302.958   22.6142   
35.6      14200.1   0.0114803 51.88     302.83    22.6164   
35.7      14238.6   0.0114803 52.0044   302.706   22.5644   
35.8      14275.8   0.0114803 52.1278   302.582   22.6045   
35.9      14314.5   0.0114803 52.2521   302.458   22.6065   
36        14349.2   0.0114803 52.3797   302.33    22.6265   
36.1      14390.9   0.0114803 52.5081   302.202   22.6031   
36.2      14431.5   0.0114803 52.6324   302.078   22.5807   
36.3      14473.4   0.0114803 52.7633   301.947   22.5585   
36.4      14511.7   0.0114803 52.893    301.817   22.5921   
36.5      14553.1   0.0114803 53.0223   301.688   22.5997   
36.6      14593.6   0.0114803 53.1503   301.56    22.5941   
36.7      14633     0.0114803 53.2763   301.434   22.578    
36.8      14674.2   0.0114803 53.403    301.307   22.5566   
36.9      14714.8   0.0114803 53.5245   301.186   22.5413   
37        14749.6   0.0114803 53.6516   301.059   22.6257   
37.1      14789.3   0.0114803 53.7794   300.931   22.5862   
37.2      14831.8   0.0114803 53.9113   300.799   22.5767   
37.3      14869.9   0.0114803 54.0396   300.671   22.6139   
37.4      14912     0.0114803 54.1676   300.543   22.5618   
37.5      14954.4   0.0114803 54.2989   300.411   22.6058   
37.6      14993.6   0.0114803 54.4239   300.286   22.598    
37.7      15036.5   0.0114803 54.5502   300.16    22.5531   
37.8      15069.8   0.0114803 54.6777   300.033   22.5337   
37.9      15112.8   0.0114803 54.8077   299.902   22.5939   
38        15152.7   0.0114803 54.9395   299.771   22.5377   
38.1      15197.2   0.0114803 55.0706   299.64    22.569    
38.2      15235.8   0.0114803 55.1945   299.516   22.5471   
38.3      15273.4   0.0114803 55.3235   299.387   22.5494   
38.4      15320.2   0.0114803 55.4466   299.264   22.623    
38.5      15356.2   0.0114803 55.5729   299.137   22.5588   
38.6      15395.4   0.0114803 55.6989   299.011   22.5455   
38.7      15430.3   0.0114803 55.8269   298.883   22.5502   
38.8      15473.2   0.0114803 55.9556   298.755   22.6539   
38.9      15514.4   0.0114803 56.0814   298.629   22.7563   
39        15555.9   0.0114803 56.2101   298.5     22.719    
39.1      15597.7   0.0114803 56.3363   298.374   22.7434   
39.2      15638.7   0.0114803 56.4586   298.252   22.735    
39.3      15676.7   0.0114803 56.583    298.127   22.7395   
39.4      15713.4   0.0114803 56.7068   298.003   22.73     
39.5      15754.5   0.0114803 56.8349   297.875   22.7446   
39.6      15796.5   0.0114803 56.9617   297.749   22.7336   
39.7      15835.2   0.0114803 57.0847   297.626   22.7422   
39.8      15871.9   0.0114803 57.2096   297.501   22.7345   
39.9      15914.1   0.0114803 57.3342   297.376   22.7327   
40        15953.4   0.0114803 57.4609   297.249   22.7389   
40.1      15990.5   0.0114803 57.5861   297.124   22.7365   
40.2      16030     0.0114803 57.7135   296.997   22.7448   
40.3      16073.2   0.0114803 57.8427   296.868   22.7354   
40.4      16113.4   0.0114803 57.9677   296.743   22.7259   
40.5      16153.7   0.0114803 58.0962   296.614   22.7278   
40.6      16200.6   0.0114803 58.2228   296.487   22.7418   
40.7      16237.9   0.0114802 58.3465   296.364   22.7421   
40.8      16273.9   0.0114802 58.4731   296.237   22.7333   
40.9      16315.4   0.0114804 58.6028   296.107   22.7322   
41        16361     0.0114799 58.7279   295.982   22.7254   
41.1      16400.5   0.0114807 58.8514   295.859   22.7302   
41.2      16435.2   0.0114794 58.9773   295.733   22.7324   
41.3      16478     0.0114815 59.1044   295.606   22.7381   
41.4      16519.7   0.0114783 59.2341   295.476   22.7321   
41.5      16561.8   0.0114833 59.359    295.351   22.7251   
41.6      16601.7   0.0114754 59.4816   295.229   22.7356   
41.7      16642.8   0.0115701 59.6027   295.108   22.7292   
41.8      16680.9   0.0116031 59.7193   294.991   22.7278   
41.9      16717.6   0.0115928 59.8395   294.871   22.7396   
42        16752.8   0.0115984 59.9627   294.747   22.731    
42.1      16799.7   0.0115949 60.0876   294.623   22.7298   
42.2      16837     0.0115971 60.2101   294.5     22.7373   
42.3      16879.6   0.0115957 60.3326   294.378   22.7306   
42.4      16920.3   0.0115966 60.4544   294.256   22.7294   
42.5      16951.6   0.0115961 60.5743   294.136   22.7337   
42.6      16997.4   0.0115963 60.7007   294.01    22.7271   
42.7      17039.2   0.0115962 60.8265   293.884   22.7357   
42.8      17076     0.0115962 60.9529   293.757   22.7401   
42.9      17123.9   0.0115962 61.0833   293.627   22.7312   
43        17165.2   0.0115962 61.2054   293.505   22.7348   
43.1      17204.2   0.0115962 61.3266   293.384   22.7342   
43.2      17243.6   0.0115962 61.4513   293.259   22.7361   
43.3      17281.7   0.0115962 61.5743   293.136   22.7331   
43.4      17324.6   0.0115962 61.6949   293.015   22.7331   
43.5      17366.1   0.0115962 61.8191   292.891   22.7279   
43.6      17405.6   0.0115962 61.9399   292.77    22.7286   
43.7      17448.5   0.0115962 62.063    292.647   22.7319   
43.8      17488.9   0.0115962 62.1791   292.531   22.7398   
43.9      17527.7   0.0115962 62.2999   292.41    22.7358   
44        17565.6   0.0115962 62.4199   292.29    22.74     
44.1      17602.8   0.0115962 62.5427   292.168   22.7342   
44.2      17647.5   0.0115962 62.6653   292.045   22.7431   
44.3      17691.5   0.0115962 62.7859   291.924   22.6349   
44.4      17724.8   0.0115962 62.9077   291.803   22.547    
44.5      17766     0.0115962 63.0284   291.682   22.5722   
44.6      17808.6   0.0115962 63.151    291.559   22.5461   
44.7      17850.6   0.0115962 63.2736   291.437   22.5517   
44.8      17891.3   0.0115962 63.3977   291.312   22.5619   
44.9      17931.8   0.0115962 63.5192   291.191   22.5679   
45        17972.5   0.0115962 63.6416   291.069   22.5557   
45.1      18014.2   0.0115962 63.7672   290.943   22.5967   
45.2      18054.9   0.0115962 63.8876   290.823   22.5637   
45.3      18097     0.0115962 64.012    290.698   22.5774   
45.4      18141.2   0.0115962 64.131    290.579   22.5554   
45.5      18175.4   0.0115962 64.2503   290.46    22.5319   
45.6      18214.7   0.0115962 64.3745   290.336   22.5534   
45.7      18263.3   0.0115962 64.4974   290.213   22.6924   
45.8      18299.8   0.0115962 64.616    290.094   22.7532   
45.9      18338.4   0.0115962 64.7393   289.971   22.7303   
46        18380.3   0.0115962 64.8613   289.849   22.737    
46.1      18421.7   0.0115962 64.9839   289.726   22.7255   
46.2      18464.1   0.0115962 65.1022   289.608   22.7305   
46.3      18501     0.0115962 65.2235   289.487   22.7272   
46.4      18545.7   0.0115962 65.3436   289.367   22.739    
46.5      18585.5   0.0115962 65.4617   289.249   22.7329   
46.6      18625.2   0.0115962 65.5805   289.13    22.7324   
46.7      18662.7   0.0115962 65.7036   289.007   22.7282   
46.8      18708     0.0115962 65.8272   288.883   22.7333   
46.9      18748.1   0.0115962 65.9456   288.765   22.7319   
47        18785.3   0.0115962 66.0644   288.646   22.7351   
47.1      18830.1   0.0115962 66.1808   288.529   22.735    
47.2      18867.4   0.0115962 66.2988   288.411   22.7341   
47.3      18905.7   0.0115962 66.4152   288.295   22.7316   
47.4      18945.5   0.0115962 66.5348   288.175   22.7364   
47.5      18987.4   0.0115962 66.6548   288.055   22.7382   
47.6      19025.1   0.0115962 66.7766   287.934   22.7378   
47.7      19067.4   0.0115962 66.9008   287.809   22.7348   
47.8      19110     0.0115962 67.0283   287.682   22.7296   
47.9      19153.9   0.0115962 67.1527   287.557   22.7331   
48        19198.2   0.0115962 67.2763   287.434   22.7425   
48.1      19242.2   0.0115962 67.3933   287.317   22.7398   
48.2      19276.6   0.0115962 67.5118   287.198   22.7384   
48.3      19320.1   0.0115962 67.6344   287.076   22.7391   
48.4      19363.5   0.0115962 67.7506   286.96    22.7399   
48.5      19398     0.0115962 67.8672   286.843   22.7437   
48.6      19438.9   0.0115962 67.9857   286.725   22.7361   
48.7      19477.7   0.0115962 68.1045   286.606   22.7271   
48.8      19521.1   0.0115962 68.2211   286.489   22.7307   
48.9      19560.2   0.0115962 68.3381   286.372   22.7377   
49        19600.9   0.0115962 68.455    286.255   22.7396   
49.1      19639.3   0.0115962 68.5718   286.138   22.736    
49.2      19677.3   0.0115962 68.6915   286.019   22.7335   
49.3      19718.6   0.0115962 68.811    285.899   22.7373   
49.4      19762.6   0.0115962 68.9271   285.783   22.728    
49.5      19795.8   0.0115962 69.0442   285.666   22.7344   
49.6      19840.8   0.0115962 69.1642   285.546   22.7332   
49.7      19882.1   0.0115962 69.285    285.425   22.7369   
49.8      19918.6   0.0115962 69.4077   285.303   22.7331   
49.9      19964.5   0.0115962 69.5306   285.18    22.7283   
50        20008.3   0.0115962 69.6496   285.061   22.7391   
50.1      20049.2   0.0115962 69.7654   284.945   22.7441   
50.2      20084.1   0.0115962 69.8833   284.827   22.7352   
50.3      20129.8   0.0115962 69.998    284.712   22.7335   
50.4      20161.2   0.0115962 70.1134   284.597   22.7337   
50.5      20206.3   0.0115962 70.2351   284.475   22.7279   
50.6      20245     0.0115962 70.3516   284.359   22.7364   
50.7      20283.6   0.0115962 70.4721   284.238   22.744    
50.8      20332.2   0.0115962 70.5908   284.119   22.7341   
50.9      20368.7   0.0115962 70.7053   284.005   22.7283   
51        20408.2   0.0115962 70.8223   283.888   22.7395   
51.1      20447.5   0.0115962 70.9369   283.773   22.7346   
51.2      20486.8   0.0115962 71.0512   283.659   22.7346   
51.3      20528.2   0.0115962 71.1709   283.539   22.7368   
51.4      20567.9   0.0115962 71.2843   283.426   22.7362   
51.5      20605.7   0.0115962 71.3976   283.313   22.7365   
51.6      20642.8   0.0115962 71.5167   283.194   22.7415   
51.7      20685.6   0.0115962 71.6395   283.071   22.7442   
51.8      20727.6   0.0115962 71.7594   282.951   22.7363   
51.9      20773.6   0.0115962 71.8775   282.833   22.7392   
52        20815.1   0.0115962 71.9911   282.719   22.7398   
52.1      20854.3   0.0115962 72.1049   282.605   22.7401   
52.2      20888.7   0.0115962 72.2214   282.489   22.7392   
52.3      20930     0.0115962 72.3375   282.373   22.7318   
52.4      20975.3   0.0115962 72.4547   282.255   22.7348   
52.5      21011.3   0.0115962 72.5714   282.139   22.7281   
52.6      21050     0.0115962 72.6853   282.025   22.7318   
52.7      21093     0.0115962 72.7992   281.911   22.7404   
52.8      21132.5   0.0115962 72.9158   281.794   22.737    
52.9      21175.2   0.0115962 73.0316   281.679   22.7379   
53        21218.4   0.0115962 73.1445   281.566   22.741    
53.1      21256.1   0.0115962 73.26     281.45    22.7345   
53.2      21295     0.0115962 73.3751   281.335   22.7421   
53.3      21337.1   0.0115962 73.4886   281.222   22.7428   
53.4      21376     0.0115962 73.6049   281.105   22.7462   
53.5      21413.3   0.0115962 73.7181   280.992   22.7471   
53.6      21455.7   0.0115962 73.837    280.873   22.7372   
53.7      21502.5   0.0115962 73.9534   280.757   22.7388   
53.8      21541.9   0.0115962 74.0633   280.647   22.7363   
53.9      21576.9   0.0115962 74.1782   280.532   22.7388   
54        21622     0.0115961 74.2964   280.414   22.7379   
54.1      21660.8   0.0115964 74.4093   280.301   22.7308   
54.2      21701     0.0115959 74.522    280.188   22.7328   
54.3      21743.3   0.0115967 74.6346   280.076   22.7428   
54.4      21776.4   0.0115953 74.7477   279.963   22.7423   
54.5      21821.1   0.0115975 74.863    279.847   22.7363   
54.6      21863.1   0.0115942 74.9776   279.733   22.7381   
54.7      21906.1   0.0115995 75.0903   279.62    22.7466   
54.8      21947.8   0.0115907 75.2011   279.509   22.7271   
54.9      21982.4   0.0116854 75.3082   279.402   22.7376   
55        22019.9   0.0117192 75.4155   279.295   22.741    
55.1      22056.2   0.0117086 75.5263   279.184   22.7348   
55.2      22099     0.0117144 75.6418   279.068   22.7385   
55.3      22141.4   0.0117108 75.7508   278.959   22.7326   
55.4      22181.6   0.0117131 75.8574   278.853   22.7424   
55.5      22216.4   0.0117117 75.9674   278.743   22.7387   
55.6      22258.4   0.0117126 76.0817   278.629   22.7409   
55.7      22299     0.011712  76.1918   278.518   22.7334   
55.8      22332.5   0.0117123 76.3016   278.409   22.7389   
55.9      22376     0.0117122 76.4137   278.297   22.7384   
56        22419.8   0.0117122 76.5227   278.187   22.7234   
56.1      22458.2   0.0117122 76.6308   278.079   22.7379   
56.2      22496.3   0.0117122 76.737    277.973   22.7449   
56.3      22533.9   0.0117122 76.8492   277.861   22.73     
56.4      22570.6   0.0117122 76.9591   277.751   22.7331   
56.5      22612.9   0.0117122 77.0711   277.639   22.7362   
56.6      22659.8   0.0117122 77.1796   277.531   22.7363   
56.7      22692.3   0.0117122 77.2892   277.421   22.7408   
56.8      22733.8   0.0117122 77.4004   277.31    22.7395   
56.9      22773.6   0.0117122 77.5115   277.199   22.7464   
57        22811.5   0.0117122 77.6262   277.084   22.7392   
57.1      22859.5   0.0117122 77.7397   276.971   22.7414   
57.2      22899.3   0.0117122 77.8497   276.861   22.7332   
57.3      22938.2   0.0117122 77.961    276.749   22.7356   
57.4      22979.3   0.0117122 78.069    276.641   22.7405   
57.5      23017.6   0.0117122 78.1796   276.531   22.7326   
57.6      23056.6   0.0117122 78.29     276.42    22.7369   
57.7      23096     0.0117122 78.4      276.31    22.733    
57.8      23136.8   0.0117122 78.5159   276.194   22.7315   
57.9      23180.9   0.0117122 78.6296   276.081   22.7354   
58        23220.2   0.0117122 78.7409   275.969   22.7333   
58.1      23259.9   0.0117122 78.8519   275.858   22.744    
58.2      23304.8   0.0117122 78.964    275.746   22.7345   
58.3      23343.6   0.0117122 79.0723   275.638   22.7274   
58.4      23381.1   0.0117122 79.1775   275.533   22.7301   
58.5      23424.1   0.0117122 79.2908   275.419   22.7388   
58.6      23465.2   0.0117122 79.399    275.311   22.7426   
58.7      23499.5   0.0117122 79.5082   275.202   22.7366   
58.8      23539.9   0.0117122 79.62     275.09    22.7318   
58.9      23583.1   0.0117122 79.7274   274.983   22.7275   
59        23622.5   0.0117122 79.8393   274.871   22.7237   
59.1      23666.1   0.0117122 79.9475   274.763   22.7336   
59.2      23702     0.0117122 80.052    274.658   22.7347   
59.3      23738     0.0117122 80.1594   274.551   22.7303   
59.4      23779.8   0.0117122 80.2693   274.441   22.7291   
59.5      23818.8   0.0117122 80.3809   274.329   22.722    
59.6      23862.8   0.0117122 80.4931   274.217   22.7289   
59.7      23908.7   0.0117122 80.6016   274.109   22.7314   
59.8      23945.3   0.0117122 80.7058   274.004   22.7359   
59.9      23977.8   0.0117122 80.8167   273.893   22.7215   
60        24023     0.0117122 80.9321   273.778   22.7359   
60.1      24068.4   0.0117122 81.0408   273.669   22.7314   
60.2      24104.8   0.0117122 81.1488   273.561   22.7379   
60.3      24147     0.0117122 81.2597   273.451   22.7139   
60.4      24185.5   0.0117122 81.3724   273.338   22.5875   
60.5      24227     0.0117122 81.484    273.226   22.5221   
60.6      24272.6   0.0117122 81.5921   273.118   22.5755   
60.7      24308.5   0.0117122 81.6991   273.011   22.6353   
60.8      24348.6   0.0117122 81.8043   272.906   22.5546   
60.9      24390.2   0.0117122 81.914    272.796   22.5268   
61        24428.7   0.0117122 82.0198   272.69    22.5256   
61.1      24465.6   0.0117122 82.127    272.583   22.5574   
61.2      24508.3   0.0117122 82.2373   272.473   22.567    
61.3      24548.6   0.0117122 82.3453   272.365   22.5524   
61.4      24587.3   0.0117122 82.4546   272.256   22.5666   
61.5      24626.4   0.0117122 82.5623   272.148   22.574    
61.6      24669.5   0.0117122 82.6696   272.041   22.5238   
61.7      24711.1   0.0117122 82.7786   271.932   22.5919   
61.8      24749     0.0117122 82.8805   271.83    22.7365   
61.9      24786.2   0.0117122 82.9873   271.723   22.7198   
62        24828.9   0.0117122 83.0934   271.617   22.7264   
62.1      24865.8   0.0117122 83.1967   271.514   22.7295   
62.2      24903     0.0117122 83.3036   271.407   22.7292   
62.3      24943.1   0.0117122 83.4097   271.301   22.7275   
62.4      24985.8   0.0117122 83.5157   271.194   22.7317   
62.5      25024     0.0117122 83.6192   271.091   22.7305   
62.6      25060.5   0.0117122 83.7275   270.983   22.7406   
62.7      25104     0.0117122 83.8373   270.873   22.7321   
62.8      25143.7   0.0117122 83.9395   270.771   22.7304   
62.9      25182.2   0.0117122 84.0415   270.669   22.725    
63        25216.8   0.0117122 84.1442   270.566   22.7292   
63.1      25259     0.0117122 84.2459   270.464   22.7284   
63.2      25299.3   0.0117122 84.3472   270.363   22.7356   
63.3      25334.9   0.0117122 84.4482   270.262   22.7357   
63.4      25371     0.0117122 84.5543   270.156   22.7314   
63.5      25412.5   0.0117122 84.6659   270.044   22.7306   
63.6      25457.9   0.0117122 84.771    269.939   22.733    
63.7      25493.9   0.0117122 84.8696   269.841   22.7426   
63.8      25532.6   0.0117122 84.9762   269.734   22.7324   
63.9      25573.1   0.0117122 85.0813   269.629   22.7385   
64        25609.3   0.0117122 85.1853   269.525   22.7372   
64.1      25651.1   0.0117122 85.2932   269.417   22.7208   
64.2      25688.7   0.0117122 85.399    269.311   22.7339   
64.3      25732.4   0.0117122 85.5081   269.202   22.7345   
64.4      25774.3   0.0117122 85.6153   269.095   22.7325   
64.5      25813     0.0117122 85.7181   268.992   22.7298   
64.6      25851.3   0.0117122 85.8219   268.888   22.7274   
64.7      25890.6   0.0117122 85.9267   268.784   22.7396   
64.8      25935.1   0.0117122 86.0348   268.675   22.7334   
64.9      25972.9   0.0117122 86.1403   268.57    22.7366   
65        26014.8   0.0117122 86.2515   268.459   22.7328   
65.1      26057.5   0.0117122 86.3592   268.351   22.7284   
65.2      26095.4   0.0117122 86.4653   268.245   22.7346   
65.3      26141.9   0.0117122 86.5731   268.137   22.7301   
65.4      26178.2   0.0117122 86.6777   268.032   22.7308   
65.5      26217.3   0.0117122 86.784    267.926   22.7369   
65.6      26260.6   0.0117122 86.8917   267.819   22.7351   
65.7      26297.1   0.0117122 86.9969   267.713   22.7297   
65.8      26339.1   0.0117122 87.107    267.603   22.7246   
65.9      26381     0.0117122 87.2154   267.495   22.7264   
66        26423.3   0.0117122 87.3201   267.39    22.7309   
66.1      26462     0.0117122 87.4244   267.286   22.7287   
66.2      26502.7   0.0117122 87.5283   267.182   22.7295   
66.3      26543.1   0.0117122 87.6348   267.075   22.7287   
66.4      26579.1   0.0117122 87.7376   266.973   22.7336   
66.5      26622.4   0.0117122 87.846    266.864   22.7371   
66.6      26665.3   0.0117121 87.953    266.757   22.724    
66.7      26705.4   0.0117123 88.0559   266.654   22.7307   
66.8      26751.5   0.0117119 88.1602   266.55    22.7358   
66.9      26797.1   0.0117127 88.2613   266.449   22.7407   
67        26840.8   0.0117113 88.3544   266.356   22.7283   
67.1      26889.5   0.0117135 88.4441   266.266   22.7314   
67.2      26942.2   0.0117101 88.5317   266.178   22.7288   
67.3      26999.2   0.0117154 88.612    266.098   22.7197   
67.4      27047.4   0.0117067 88.6832   266.027   22.7318   
67.5      27090.2   0.0118014 88.744    265.966   22.7371   
67.6      27123.9   0.0118352 88.8004   265.91    22.7291   
67.7      27165.5   0.0118246 88.8674   265.843   22.7326   
67.8      27218.6   0.0118304 88.9279   265.782   22.7297   
67.9      27260.5   0.0118268 88.9812   265.729   22.727    
68        27304.4   0.0118291 89.0395   265.671   22.7398   
68.1      27348.8   0.0118276 89.0913   265.619   22.7319   
68.2      27387     0.0118285 89.146    265.564   22.7319   
68.3      27436.9   0.011828  89.1971   265.513   22.7332   
68.4      27474.3   0.0118283 89.2415   265.469   22.7324   
68.5      27507.9   0.0118282 89.2873   265.423   22.7347   
68.6      27551.2   0.0118282 89.3373   265.373   22.7324   
68.7      27599.7   0.0118282 89.3856   265.325   22.7333   
68.8      27645.6   0.0118282 89.4252   265.285   22.7377   
68.9      27668.4   0.0118282 89.4581   265.252   22.7319   
69        27704.5   0.0118282 89.4956   265.215   22.7343   
69.1      27744.6   0.0118282 89.5313   265.179   22.7268   
69.2      27780.6   0.0118282 89.5703   265.14    22.7361   
69.3      27828.1   0.0118282 89.6105   265.1     22.7325   
69.4      27867.5   0.0118282 89.6452   265.065   22.729    
69.5      27905.4   0.0118282 89.6814   265.029   22.7356   
69.6      27949.4   0.0118282 89.7165   264.994   22.7367   
69.7      27989     0.0118282 89.7537   264.957   22.7336   
69.8      28039.6   0.0118282 89.7916   264.919   22.73     
69.9      28076.9   0.0118282 89.8234   264.887   22.7344   
70        28113.1   0.0118282 89.8556   264.855   22.7276   
70.1      28153.7   0.0118282 89.8889   264.821   22.733    
70.2      28191.4   0.0118282 89.9239   264.786   22.7365   
70.3      28241.6   0.0118282 89.9552   264.755   22.7441   
70.4      28270.7   0.0118282 89.9841   264.726   22.7374   
70.5      28314.3   0.0118282 90.0166   264.694   22.7266   
70.6      28364.5   0.0118282 90.0495   264.661   22.7357   
70.7      28403     0.0118282 90.081    264.629   22.7368   
70.8      28445.2   0.0118282 90.1116   264.599   22.7331   
70.9      28485.2   0.0118282 90.1384   264.572   22.7384   
71        28520.7   0.0118282 90.1643   264.546   22.7336   
71.1      28547.9   0.0118282 90.1896   264.521   22.7369   
71.2      28589     0.0118282 90.2217   264.489   22.7399   
71.3      28640     0.0118282 90.2534   264.457   22.7308   
71.4      28683.6   0.0118282 90.2794   264.431   22.7391   
71.5      28716     0.0118282 90.3035   264.407   22.7376   
71.6      28752.6   0.0118282 90.3303   264.38    22.7318   
71.7      28790     0.0118282 90.3561   264.354   22.7296   
71.8      28821.5   0.0118282 90.3804   264.33    22.7281   
71.9      28869.2   0.0118282 90.4132   264.297   22.7371   
72        28935.7   0.0118282 90.4491   264.261   22.7295   
72.1      28986.7   0.0118282 90.4776   264.233   22.7313   
72.2      29020     0.0118282 90.5025   264.208   22.7323   
72.3      29057.9   0.0118282 90.528    264.182   22.7286   
72.4      29101.7   0.0118282 90.5542   264.156   22.7371   
72.5      29137.3   0.0118282 90.579    264.131   22.7376   
72.6      29177.1   0.0118282 90.6055   264.105   22.7303   
72.7      29224.2   0.0118282 90.6303   264.08    22.7297   
72.8      29256.7   0.0118282 90.6535   264.057   22.7346   
72.9      29295     0.0118282 90.6813   264.029   22.7356   
73        29354.2   0.0118282 90.7134   263.997   22.7349   
73.1      29408.8   0.0118282 90.743    263.967   22.7371   
73.2      29451.1   0.0118282 90.7676   263.943   22.7218   
73.3      29483.4   0.0118282 90.7888   263.921   22.7306   
73.4      29513.4   0.0118282 90.8121   263.898   22.7351   
73.5      29560.5   0.0118282 90.8381   263.872   22.727    
73.6      29601.2   0.0118282 90.8631   263.847   22.7349   
73.7      29646.3   0.0118282 90.8876   263.823   22.7246   
73.8      29679.3   0.0118282 90.9081   263.802   22.7289   
73.9      29716.4   0.0118282 90.9349   263.775   22.7373   
74        29776.7   0.0118282 90.965    263.745   22.7396   
74.1      29828.5   0.0118282 90.9902   263.72    22.7359   
74.2      29862.7   0.0118282 91.0102   263.7     22.7268   
74.3      29891.4   0.0118282 91.0327   263.677   22.7298   
74.4      29936.4   0.0118282 91.0577   263.652   22.7367   
74.5      29983.6   0.0118282 91.0816   263.629   22.7284   
74.6      30026     0.0118282 91.1059   263.604   22.7244   
74.7      30068.1   0.0118282 91.1266   263.584   22.7298   
74.8      30093.2   0.0118282 91.1447   263.566   22.7293   
74.9      30128.2   0.0118282 91.1699   263.54    22.7232   
75        30197.6   0.0118282 91.1997   263.511   22.7313   
75.1      30247.8   0.0118282 91.2239   263.486   22.7364   
75.2      30281.9   0.0118282 91.2442   263.466   22.7362   
75.3      30320.1   0.0118282 91.2648   263.445   22.7345   
75.4      30352.4   0.0118282 91.2861   263.424   22.7285   
75.5      30405     0.0118282 91.3108   263.399   22.7315   
75.6      30438.7   0.0118282 91.3304   263.38    22.7333   
75.7      30482.8   0.0118282 91.3535   263.357   22.7324   
75.8      30499.8   0.0118282 91.3542   263.356   22.7299   
75.9      30470.1   0.0118282 91.3834   263.327   22.7334   
76        30674.7   0.0118282 91.4598   263.25    22.7351   
76.1      30790.1   0.0118282 91.4629   263.247   22.7324   
76.2      30647.1   0.0118282 91.4411   263.269   22.7223   
76.3      30599.8   0.0118282 91.4438   263.266   22.7258   
76.4      30599.6   0.0118282 91.4453   263.265   22.7253   
76.5      30574.8   0.0118282 91.4401   263.27    22.7305   
76.6      30536.5   0.0118282 91.4342   263.276   22.7352   
76.7      30497.3   0.0118282 91.4275   263.283   22.7319   
76.8      30464.6   0.0118282 91.4229   263.287   22.7365   
76.9      30445.8   0.0118282 91.4188   263.291   22.7353   
77        30421.2   0.0118282 91.4132   263.297   22.7331   
77.1      30383.4   0.0118282 91.4056   263.305   22.73     
77.2      30347.2   0.0118282 91.399    263.311   22.7348   
77.3      30316.3   0.0118282 91.392    263.318   22.738    
77.4      30286.3   0.0118282 91.3858   263.324   22.7343   
77.5      30256.6   0.0118282 91.3782   263.332   22.7386   
77.6      30221     0.0118282 91.371    263.339   22.7299   
77.7      30191.5   0.0118282 91.3645   263.346   22.7477   
77.8      30173     0.0118282 91.3567   263.354   22.6312   
77.9      30133.8   0.0118282 91.3468   263.363   22.5286   
78        30100.6   0.0118282 91.3389   263.371   22.5408   
78.1      30073.4   0.0118282 91.3316   263.379   22.5288   
78.2      30043.9   0.0118282 91.3241   263.386   22.544    
78.3      30019.8   0.0118282 91.3165   263.394   22.557    
78.4      29983.4   0.0118282 91.3079   263.402   22.5452   
78.5      29952.7   0.0118282 91.3003   263.41    22.5272   
78.6      29930.2   0.0118282 91.2931   263.417   22.5551   
78.7      29902.8   0.0118282 91.2852   263.425   22.5686   
78.8      29875.3   0.0118282 91.2767   263.433   22.5418   
78.9      29847.1   0.0118282 91.2676   263.443   22.5429   
79        29816.6   0.0118282 91.2583   263.452   22.531    
79.1      29784.1   0.0118282 91.2489   263.461   22.5388   
79.2      29754.3   0.0118282 91.2399   263.47    22.7077   
79.3      29728.7   0.0118282 91.2317   263.478   22.7449   
79.4      29694.8   0.0118282 91.2221   263.488   22.7268   
79.5      29665.2   0.0118282 91.2134   263.497   22.7445   
79.6      29644.4   0.0118282 91.2048   263.505   22.7275   
79.7      29606.2   0.0118282 91.1947   263.515   22.7409   
79.8      29582.4   0.0118282 91.1865   263.524   22.7316   
79.9      29556.3   0.0118282 91.1762   263.534   22.7378   
80        29518.1   0.0118282 91.1654   263.545   22.7461   
80.1      29488.6   0.0118282 91.1564   263.554   22.7439   
80.2      29465.6   0.0118282 91.1475   263.563   22.7377   
80.3      29441.7   0.0118282 91.1375   263.573   22.7364   
80.4      29403.8   0.0118282 91.1262   263.584   22.7376   
80.5      29380.6   0.0118282 91.1168   263.593   22.7342   
80.6      29347.1   0.0118282 91.1054   263.605   22.739    
80.7      29315.6   0.0118282 91.0957   263.614   22.7375   
80.8      29292.3   0.0118282 91.0862   263.624   22.7283   
80.9      29263.1   0.0118282 91.0755   263.635   22.7376   
81        29234.8   0.0118282 91.0645   263.646   22.7433   
81.1      29205.9   0.0118282 91.054    263.656   22.742    
81.2      29174.8   0.0118282 91.0418   263.668   22.7377   
81.3      29142.9   0.0118282 91.0318   263.678   22.737    
81.4      29124.4   0.0118282 91.0212   263.689   22.7405   
81.5      29086.3   0.0118282 91.0085   263.702   22.7389   
81.6      29055.2   0.0118282 90.9975   263.713   22.7392   
81.7      29030.6   0.0118282 90.9871   263.723   22.7345   
81.8      29001     0.0118282 90.9754   263.735   22.7346   
81.9      28972.7   0.0118282 90.964    263.746   22.7344   
82        28949.8   0.0118282 90.9534   263.757   22.7342   
82.1      28923.9   0.0118282 90.9425   263.768   22.7283   
82.2      28890     0.0118282 90.9321   263.778   22.728    
82.3      28872.4   0.0118282 90.9216   263.789   22.7361   
82.4      28840.4   0.0118282 90.9086   263.802   22.7317   
82.5      28808.1   0.0118282 90.8956   263.815   22.7322   
82.6      28780.3   0.0118282 90.8844   263.826   22.7331   
82.7      28756     0.0118282 90.8737   263.837   22.7347   
82.8      28722     0.0118282 90.8604   263.85    22.7251   
82.9      28696.5   0.0118282 90.8485   263.862   22.7306   
83        28669.4   0.0118282 90.8362   263.874   22.7351   
83.1      28643.1   0.0118282 90.8265   263.884   22.7406   
83.2      28623.8   0.0118282 90.8159   263.894   22.7383   
83.3      28594.1   0.0118282 90.8031   263.907   22.7334   
83.4      28564.5   0.0118282 90.7907   263.92    22.7298   
83.5      28535.5   0.0118282 90.7767   263.934   22.7293   
83.6      28504.7   0.0118282 90.7587   263.952   22.7295   
83.7      28456.3   0.0118282 90.7398   263.97    22.724    
83.8      28418.2   0.0118282 90.722    263.988   22.7422   
83.9      28376.9   0.0118282 90.7029   264.007   22.7418   
84        28340.4   0.0118282 90.684    264.026   22.7343   
84.1      28306.5   0.0118282 90.6684   264.042   22.7378   
84.2      28278.9   0.0118282 90.6529   264.057   22.7192   
84.3      28240.6   0.0118282 90.6314   264.079   22.7183   
84.4      28191     0.0118282 90.6098   264.1     22.7368   
84.5      28154.8   0.0118282 90.5886   264.122   22.7383   
84.6      28108.7   0.0118282 90.5659   264.144   22.7345   
84.7      28071     0.0118282 90.5451   264.165   22.7331   
84.8      28030.3   0.0118282 90.5219   264.188   22.7372   
84.9      27982.4   0.0118282 90.4986   264.212   22.7414   
85        27947.1   0.0118282 90.4757   264.235   22.7395   
85.1      27897.5   0.0118282 90.4484   264.262   22.7293   
85.2      27851     0.0118282 90.4243   264.286   22.7351   
85.3      27815.3   0.0118282 90.401    264.309   22.7337   
85.4      27769.7   0.0118282 90.3753   264.335   22.7261   
85.5      27728.9   0.0118282 90.3502   264.36    22.723    
85.6      27688.9   0.0118282 90.3233   264.387   22.7353   
85.7      27645.5   0.0118282 90.297    264.413   22.7359   
85.8      27609.7   0.0118282 90.2704   264.44    22.7347   
85.9      27568.7   0.0118282 90.2414   264.469   22.733    
86        27521.8   0.0118282 90.2114   264.499   22.7325   
86.1      27474.8   0.0118282 90.1798   264.53    22.7341   
86.2      27427.4   0.0118282 90.1484   264.562   22.7276   
86.3      27384.4   0.0118282 90.1169   264.593   22.7255   
86.4      27343.5   0.0118282 90.0879   264.622   22.7257   
86.5      27307.5   0.0118282 90.0576   264.653   22.7346   
86.6      27266.9   0.0118282 90.0242   264.686   22.7268   
86.7      27220.8   0.0118282 89.9907   264.72    22.7261   
86.8      27186.9   0.0118282 89.9563   264.754   22.7378   
86.9      27137.7   0.0118282 89.9186   264.792   22.7323   
87        27093.6   0.0118282 89.8828   264.827   22.7264   
87.1      27054.6   0.0118282 89.8461   264.864   22.7313   
87.2      27014.5   0.0118282 89.8096   264.901   22.7286   
87.3      26980.1   0.0118282 89.7724   264.938   22.7312   
87.4      26937.8   0.0118282 89.7344   264.976   22.734    
87.5      26896.7   0.0118282 89.6916   265.019   22.7336   
87.6      26856.4   0.0118282 89.6479   265.062   22.7341   
87.7      26818.5   0.0118282 89.6023   265.108   22.725    
87.8      26775.9   0.0118282 89.5565   265.154   22.7297   
87.9      26736.6   0.0118282 89.5107   265.2     22.7334   
88        26703.4   0.0118282 89.4622   265.248   22.7296   
88.1      26660     0.0118282 89.4124   265.298   22.7377   
88.2      26625.3   0.0118282 89.3635   265.347   22.7333   
88.3      26589     0.0118282 89.3129   265.397   22.7332   
88.4      26548.5   0.0118282 89.2577   265.453   22.7359   
88.5      26514.3   0.0118282 89.2014   265.509   22.7336   
88.6      26473.7   0.0118282 89.1428   265.567   22.7306   
88.7      26439.7   0.0118282 89.0815   265.629   22.7272   
88.8      26400.4   0.0118282 89.0178   265.692   22.7247   
88.9      26359.2   0.0118282 88.9512   265.759   22.7254   
89        26327.5   0.0118282 88.8849   265.825   22.726    
89.1      26295.2   0.0118282 88.8178   265.892   22.7323   
89.2      26264.7   0.0118282 88.7452   265.965   22.7305   
89.3      26230.1   0.0118282 88.6665   266.044   22.7356   
89.4      26192.4   0.0118282 88.5867   266.124   22.7333   
89.5      26156.4   0.0118282 88.5018   266.208   22.7294   
89.6      26109.1   0.0118282 88.4143   266.296   22.7302   
89.7      26067.7   0.0118282 88.327    266.383   22.7299   
89.8      26028     0.0118282 88.2412   266.469   22.7291   
89.9      25988.9   0.0118282 88.1528   266.557   22.7321   
90        25944.6   0.0118282 88.0618   266.648   22.7353   
90.1      25904.8   0.0118282 87.9733   266.737   22.7295   
90.2      25866.7   0.0118282 87.8811   266.829   22.7396   
90.3      25818.6   0.0118282 87.7845   266.926   22.7322   
90.4      25776.4   0.0118282 87.6906   267.02    22.7363   
90.5      25732.1   0.0118282 87.5991   267.111   22.7315   
90.6      25696.5   0.0118282 87.5094   267.201   22.7263   
90.7      25654     0.0118282 87.4127   267.297   22.7306   
90.8      25609.2   0.0118282 87.314    267.396   22.7371   
90.9      25564.9   0.0118282 87.2191   267.491   22.7353   
91        25520.8   0.0118282 87.1252   267.585   22.7298   
91.1      25482.4   0.0118282 87.0298   267.68    22.7314   
91.2      25438.5   0.0118282 86.9329   267.777   22.7317   
91.3      25397     0.0118282 86.8372   267.873   22.7344   
91.4      25358.2   0.0118282 86.7399   267.97    22.7362   
91.5      25306.6   0.0118282 86.6403   268.07    22.7329   
91.6      25264.2   0.0118282 86.5427   268.168   22.7306   
91.7      25225.1   0.0118282 86.4459   268.264   22.7309   
91.8      25180.3   0.0118282 86.3492   268.361   22.7272   
91.9      25133.9   0.0118282 86.249    268.461   22.7279   
92        25095.4   0.0118282 86.1511   268.559   22.7321   
92.1      25054.6   0.0118282 86.0558   268.654   22.7344   
92.2      25014.5   0.0118282 85.9624   268.748   22.7271   
92.3      24973.4   0.0118282 85.8644   268.846   22.7249   
92.4      24929.4   0.0118282 85.7675   268.943   22.7329   
92.5      24887.2   0.0118282 85.6723   269.038   22.7376   
92.6      24845.4   0.0118282 85.5724   269.138   22.7299   
92.7      24802.6   0.0118282 85.4722   269.238   22.7306   
92.8      24759.4   0.0118282 85.3714   269.339   22.7365   
92.9      24720.2   0.0118282 85.2728   269.437   22.7366   
93        24678.1   0.0118282 85.1719   269.538   22.7313   
93.1      24629.8   0.0118282 85.0716   269.639   22.7352   
93.2      24590.6   0.0118282 84.9746   269.736   22.7305   
93.3      24554.5   0.0118282 84.8794   269.831   22.7282   
93.4      24510.5   0.0118282 84.7761   269.934   22.7296   
93.5      24463.6   0.0118282 84.6769   270.033   22.7259   
93.6      24421.8   0.0118282 84.5761   270.134   22.7232   
93.7      24381.7   0.0118282 84.4776   270.233   22.7246   
93.8      24338.4   0.0118282 84.3753   270.335   22.7329   
93.9      24298.5   0.0118282 84.276    270.434   22.7405   
94        24255.9   0.0118282 84.173    270.537   22.7374   
94.1      24213     0.0118282 84.0698   270.64    22.7313   
94.2      24172.5   0.0118282 83.9657   270.745   22.7288   
94.3      24125.3   0.0118282 83.861    270.849   22.7306   
94.4      24081.6   0.0118282 83.7574   270.953   22.7341   
94.5      24041.5   0.0118282 83.6567   271.054   22.7326   
94.6      24000.3   0.0118282 83.5518   271.158   22.728    
94.7      23954.1   0.0118282 83.4464   271.264   22.7351   
94.8      23913.6   0.0118282 83.3454   271.365   22.7385   
94.9      23874.5   0.0118282 83.2398   271.47    22.7312   
95        23826.4   0.0118282 83.133    271.577   22.7403   
95.1      23784.1   0.0118282 83.025    271.685   22.7373   
95.2      23733.7   0.0118282 82.9148   271.795   22.73     
95.3      23692.5   0.0118282 82.806    271.904   22.7355   
95.4      23652.6   0.0118282 82.699    272.011   22.7207   
95.5      23602.9   0.0118282 82.5867   272.123   22.7319   
95.6      23560.1   0.0118282 82.4788   272.231   22.7318   
95.7      23523.8   0.0118282 82.3718   272.338   22.716    
95.8      23474.6   0.0118282 82.2594   272.451   22.7217   
95.9      23427.8   0.0118282 82.1512   272.559   22.7276   
96        23389.7   0.0118282 82.0477   272.662   22.7374   
96.1      23343.9   0.0118282 81.9408   272.769   22.7312   
96.2      23302     0.0118282 81.8318   272.878   22.7273   
96.3      23259.7   0.0118282 81.724    272.986   22.7339   
96.4      23217.8   0.0118282 81.6175   273.093   22.7264   
96.5      23173.3   0.0118282 81.5058   273.204   22.7296   
96.6      23127.7   0.0118282 81.3975   273.313   22.7298   
96.7      23089.4   0.0118282 81.2893   273.421   22.7242   
96.8      23041.5   0.0118282 81.1797   273.531   22.7264   
96.9      22998.9   0.0118282 81.072    273.638   22.7268   
97        22963.3   0.0118282 80.9651   273.745   22.7251   
97.1      22913.9   0.0118282 80.8505   273.86    22.7342   
97.2      22867.8   0.0118282 80.738    273.972   22.7357   
97.3      22825.1   0.0118282 80.6245   274.086   22.7256   
97.4      22777.8   0.0118282 80.5106   274.2     22.7264   
97.5      22735.3   0.0118282 80.4017   274.308   22.724    
97.6      22690.4   0.0118282 80.2896   274.421   22.7266   
97.7      22648.8   0.0118282 80.1798   274.53    22.7358   
97.8      22605.9   0.0118282 80.0759   274.634   22.7226   
97.9      22566.6   0.0118282 79.969    274.741   22.7332   
98        22522.4   0.0118282 79.856    274.854   22.7298   
98.1      22480.4   0.0118282 79.7442   274.966   22.7357   
98.2      22433.5   0.0118282 79.6305   275.08    22.7276   
98.3      22394     0.0118282 79.5207   275.189   22.7375   
98.4      22351.5   0.0118282 79.4068   275.303   22.7045   
98.5      22300.8   0.0118282 79.2974   275.413   22.5832   
98.6      22267.6   0.0118282 79.1935   275.517   22.5844   
98.7      22225.6   0.0118282 79.0812   275.629   22.6066   
98.8      22180.1   0.0118282 78.9651   275.745   22.5917   
98.9      22140.7   0.0118282 78.8514   275.859   22.5647   
99        22097.8   0.0118282 78.7403   275.97    22.5146   
99.1      22049.5   0.0118282 78.625    276.085   22.5704   
99.2      22007.7   0.0118282 78.5091   276.201   22.5918   
99.3      21966.4   0.0118282 78.3983   276.312   22.6191   
99.4      21918.1   0.0118282 78.2832   276.427   22.5904   
99.5      21873.3   0.0118282 78.1709   276.539   22.5612   
99.6      21840.2   0.0118282 78.0604   276.65    22.6166   
99.7      21796.6   0.0118282 77.9444   276.766   22.5576   
99.8      21748.2   0.0118282 77.83     276.88    22.6422   
99.9      21702.5   0.0118282 77.7157   276.994   22.7404   
100       21660.2   0.0118282 77.6056   277.105   22.7288   
100.1     21624.7   0.0118282 77.5026   277.208   22.7331   
100.2     21588.2   0.0118282 77.3954   277.315   22.7263   
100.3     21542.4   0.0118282 77.2852   277.425   22.7352   
100.4     21496.8   0.0118282 77.1711   277.539   22.7284   
100.5     21461.1   0.0118282 77.0652   277.645   22.7319   
100.6     21418     0.0118282 76.9515   277.759   22.7276   
100.7     21375.1   0.0118282 76.8377   277.872   22.7324   
100.8     21334.7   0.0118282 76.7278   277.982   22.7318   
100.9     21294.4   0.0118282 76.6163   278.094   22.7346   
101       21254.1   0.0118282 76.5035   278.207   22.7306   
101.1     21206.3   0.0118282 76.3884   278.322   22.7215   
101.2     21166.1   0.0118282 76.2704   278.44    22.7267   
101.3     21124.3   0.0118282 76.1573   278.553   22.7253   
101.4     21081.6   0.0118282 76.0418   278.668   22.7361   
101.5     21038.5   0.0118282 75.9249   278.785   22.7293   
101.6     20994.8   0.0118282 75.8103   278.9     22.7351   
101.7     20955.4   0.0118282 75.6974   279.013   22.7303   
101.8     20915.3   0.0118282 75.5841   279.126   22.7287   
101.9     20868.9   0.0118282 75.4653   279.245   22.7388   
102       20827.8   0.0118282 75.3521   279.358   22.7253   
102.1     20789.8   0.0118282 75.2385   279.472   22.7254   
102.2     20747.2   0.0118282 75.1255   279.585   22.7241   
102.3     20706     0.0118282 75.0095   279.701   22.729    
102.4     20662.3   0.0118282 74.8958   279.814   22.7338   
102.5     20623.1   0.0118282 74.7816   279.929   22.7298   
102.6     20580.8   0.0118282 74.6644   280.046   22.7375   
102.7     20537.5   0.0118282 74.5448   280.165   22.7373   
102.8     20497.1   0.0118282 74.4279   280.282   22.7267   
102.9     20454.5   0.0118282 74.3137   280.397   22.7319   
103       20412.2   0.0118282 74.1966   280.514   22.7338   
103.1     20371     0.0118282 74.0771   280.633   22.7295   
103.2     20327.6   0.0118282 73.9589   280.751   22.7298   
103.3     20282     0.0118282 73.8385   280.872   22.7313   
103.4     20242.9   0.0118282 73.7207   280.989   22.734    
103.5     20203.9   0.0118282 73.603    281.107   22.73     
103.6     20160.4   0.0118282 73.4823   281.228   22.7322   
103.7     20114.5   0.0118282 73.3614   281.349   22.7355   
103.8     20070.4   0.0118282 73.2425   281.468   22.7265   
103.9     20037.4   0.0118282 73.1233   281.587   22.7371   
104       19987.8   0.0118282 73.0002   281.71    22.7343   
104.1     19943.7   0.0118282 72.8813   281.829   22.7303   
104.2     19904     0.0118282 72.7608   281.949   22.736    
104.3     19863.4   0.0118282 72.636    282.074   22.7282   
104.4     19819.6   0.0118282 72.5138   282.196   22.7027   
104.5     19773.6   0.0118282 72.387    282.323   22.5764   
104.6     19727.5   0.0118282 72.2635   282.447   22.5902   
104.7     19692     0.0118282 72.1447   282.565   22.567    
104.8     19648.4   0.0118282 72.0223   282.688   22.5838   
104.9     19598.6   0.0118282 71.896    282.814   22.5923   
105       19559     0.0118282 71.7783   282.932   22.6032   
105.1     19514.5   0.0118282 71.6575   283.053   22.6344   
105.2     19473.4   0.0118282 71.5345   283.176   22.5869   
105.3     19429.9   0.0118282 71.4097   283.3     22.6509   
105.4     19389     0.0118282 71.2842   283.426   22.7347   
105.5     19343.9   0.0118282 71.1616   283.549   22.7384   
105.6     19297.8   0.0118282 71.0363   283.674   22.7362   
105.7     19264.8   0.0118282 70.9215   283.789   22.735    
105.8     19214.1   0.0118282 70.7964   283.914   22.7338   
105.9     19171.2   0.0118282 70.6772   284.033   22.7364   
106       19132     0.0118282 70.5573   284.153   22.7392   
106.1     19091.8   0.0118282 70.4337   284.277   22.7319   
106.2     19048.1   0.0118282 70.3127   284.398   22.7434   
106.3     19004.1   0.0118282 70.1915   284.519   22.7212   
106.4     18967.2   0.0118282 70.0728   284.637   22.7408   
106.5     18922.9   0.0118282 69.9495   284.761   22.7235   
106.6     18878.9   0.0118282 69.8255   284.885   22.7572   
106.7     18837.4   0.0118282 69.7034   285.007   22.6523   
106.8     18795     0.0118282 69.582    285.128   22.5851   
106.9     18751.5   0.0118282 69.4572   285.253   22.6176   
107       18714     0.0118282 69.3372   285.373   22.5758   
107.1     18671.4   0.0118282 69.2161   285.494   22.5963   
107.2     18624.9   0.0118282 69.093    285.617   22.6075   
107.3     18584.5   0.0118282 68.9753   285.735   22.6475   
107.4     18549.9   0.0118282 68.8602   285.85    22.6242   
107.5     18506.2   0.0118282 68.7358   285.974   22.5852   
107.6     18465.4   0.0118282 68.6153   286.095   22.6547   
107.7     18425.4   0.0118282 68.4912   286.219   22.7369   
107.8     18383.5   0.0118282 68.3675   286.343   22.7305   
107.9     18341.3   0.0118282 68.2476   286.463   22.7294   
108       18295.4   0.0118282 68.1224   286.588   22.7402   
108.1     18260.6   0.0118282 68.005    286.705   22.7309   
108.2     18218.1   0.0118282 67.8809   286.829   22.7372   
108.3     18173.9   0.0118282 67.757    286.953   22.7424   
108.4     18132.7   0.0118282 67.6317   287.079   22.7343   
108.5     18089.4   0.0118282 67.508    287.202   22.7342   
108.6     18052.9   0.0118282 67.389    287.321   22.7342   
108.7     18005.8   0.0118282 67.2609   287.449   22.7375   
108.8     17962.9   0.0118282 67.1356   287.575   22.7369   
108.9     17923.8   0.0118282 67.0133   287.697   22.7395   
109       17882.6   0.0118282 66.8907   287.819   22.669    
109.1     17840.1   0.0118282 66.7674   287.943   22.61     
109.2     17799     0.0118282 66.6416   288.069   22.5845   
109.3     17756.9   0.0118282 66.517    288.193   22.631    
109.4     17717.1   0.0118282 66.3956   288.315   22.601    
109.5     17674.1   0.0118282 66.2711   288.439   22.6468   
109.6     17633.7   0.0118282 66.1491   288.561   22.6259   
109.7     17597.9   0.0118282 66.0255   288.685   22.5829   
109.8     17548.9   0.0118282 65.9001   288.81    22.6316   
109.9     17507.9   0.0118282 65.775    288.935   22.7023   
110       17465.3   0.0118283 65.6505   289.06    22.7316   
110.1     17429.8   0.011828  65.5269   289.183   22.7316   
110.2     17388.3   0.0118286 65.4025   289.308   22.7389   
110.3     17339.5   0.0118276 65.2731   289.437   22.7458   
110.4     17299     0.0118292 65.1461   289.564   22.7347   
110.5     17259.4   0.0118266 65.0196   289.691   22.7386   
110.6     17216.6   0.0118306 64.8932   289.817   22.7392   
110.7     17174.6   0.0118242 64.7686   289.942   22.73     
110.8     17134.3   0.0118359 64.638    290.072   22.7351   
110.9     17090.8   0.0117945 64.5115   290.199   22.7374   
111       17047.9   0.0117044 64.3855   290.325   22.7363   
111.1     17005.3   0.0117161 64.2593   290.451   22.7395   
111.2     16966.6   0.0117097 64.1328   290.577   22.7399   
111.3     16925.3   0.0117137 64.0088   290.701   22.7401   
111.4     16882.9   0.0117112 63.8833   290.827   22.731    
111.5     16843.8   0.0117128 63.759    290.951   22.7314   
111.6     16801.4   0.0117118 63.6347   291.076   22.736    
111.7     16761.4   0.0117124 63.5106   291.2     22.7359   
111.8     16725.3   0.0117121 63.3855   291.325   22.7391   
111.9     16678.3   0.0117122 63.2569   291.453   22.7365   
112       16636     0.0117122 63.1327   291.578   22.7394   
112.1     16604.3   0.0117122 63.0074   291.703   22.7343   
112.2     16556.2   0.0117122 62.8773   291.833   22.7291   
112.3     16513     0.0117122 62.7443   291.966   22.7413   
112.4     16472.4   0.0117122 62.6136   292.097   22.7294   
112.5     16428     0.0117122 62.4815   292.229   22.7271   
112.6     16383.9   0.0117122 62.3485   292.362   22.7448   
112.7     16341.5   0.0117122 62.2182   292.492   22.746    
112.8     16301.7   0.0117122 62.0921   292.618   22.7309   
112.9     16261.6   0.0117122 61.9612   292.749   22.7289   
113       16215.7   0.0117122 61.8308   292.879   22.7203   
113.1     16170.2   0.0117122 61.6986   293.012   22.7322   
113.2     16132.1   0.0117122 61.5707   293.14    22.7283   
113.3     16090.8   0.0117122 61.4419   293.268   22.7242   
113.4     16053.4   0.0117122 61.3146   293.396   22.7387   
113.5     16011.6   0.0117122 61.1851   293.525   22.7298   
113.6     15972.2   0.0117122 61.0532   293.657   22.7315   
113.7     15930.2   0.0117122 60.9264   293.784   22.7353   
113.8     15888.4   0.0117122 60.7944   293.916   22.7327   
113.9     15846.5   0.0117122 60.6608   294.049   22.7269   
114       15799.5   0.0117122 60.531    294.179   22.7347   
114.1     15765.8   0.0117122 60.4062   294.304   22.7261   
114.2     15724.6   0.0117122 60.2759   294.434   22.73     
114.3     15683.6   0.0117122 60.1417   294.569   22.7303   
114.4     15639.8   0.0117122 60.0107   294.699   22.7295   
114.5     15598.9   0.0117122 59.88     294.83    22.7325   
114.6     15559.3   0.0117122 59.754    294.956   22.7302   
114.7     15518.4   0.0117122 59.6225   295.088   22.7333   
114.8     15476.1   0.0117122 59.4925   295.218   22.7281   
114.9     15437.4   0.0117122 59.362    295.348   22.7186   
115       15393.9   0.0117122 59.2283   295.482   22.7319   
115.1     15351.6   0.0117122 59.0945   295.616   22.7287   
115.2     15314     0.0117122 58.9682   295.742   22.742    
115.3     15268.7   0.0117122 58.832    295.878   22.7335   
115.4     15230.5   0.0117122 58.7016   296.009   22.7305   
115.5     15194.3   0.0117122 58.5691   296.141   22.7322   
115.6     15148.9   0.0117122 58.4353   296.275   22.7381   
115.7     15111.1   0.0117122 58.3021   296.408   22.736    
115.8     15067.7   0.0117122 58.1684   296.542   22.7293   
115.9     15025.1   0.0117122 58.0369   296.673   22.7362   
116       14987     0.0117122 57.9034   296.807   22.7348   
116.1     14946.9   0.0117122 57.7709   296.939   22.7307   
116.2     14899.8   0.0117122 57.6344   297.076   22.7439   
116.3     14856.9   0.0117122 57.4963   297.214   22.7047   
116.4     14822.2   0.0117122 57.3679   297.342   22.7127   
116.5     14779.3   0.0117122 57.2326   297.478   22.7412   
116.6     14735.5   0.0117122 57.0976   297.613   22.723    
116.7     14696.8   0.0117122 56.9661   297.744   22.7566   
116.8     14651.9   0.0117122 56.8282   297.882   22.7435   
116.9     14611.7   0.0117122 56.6957   298.014   22.7382   
117       14572.3   0.0117122 56.5604   298.15    22.7059   
117.1     14528     0.0117122 56.4238   298.286   22.7233   
117.2     14488.4   0.0117122 56.2897   298.42    22.7437   
117.3     14447.8   0.0117122 56.1543   298.556   22.7278   
117.4     14405.5   0.0117122 56.0215   298.689   22.7324   
117.5     14366.8   0.0117122 55.8861   298.824   22.7263   
117.6     14325.5   0.0117122 55.7555   298.955   22.7236   
117.7     14283.3   0.0117122 55.6208   299.089   22.7255   
117.8     14243.1   0.0117122 55.487    299.223   22.7261   
117.9     14199.5   0.0117122 55.3527   299.358   22.7286   
118       14159.8   0.0117123 55.2202   299.49    22.7296   
118.1     14119.8   0.011712  55.0873   299.623   22.7302   
118.2     14079.5   0.0117126 54.9496   299.761   22.6656   
118.3     14040.9   0.0117116 54.8139   299.896   22.6116   
118.4     13994.9   0.0117132 54.6741   300.036   22.5931   
118.5     13954.6   0.0117107 54.5395   300.171   22.5996   
118.6     13915.7   0.0117146 54.404    300.306   22.6036   
118.7     13873.7   0.0117082 54.2661   300.444   22.5999   
118.8     13830.1   0.0117199 54.1298   300.58    22.6357   
118.9     13790.4   0.0116787 53.993    300.717   22.6656   
119       13747.1   0.0115885 53.8583   300.852   22.6231   
119.1     13710.4   0.0116002 53.7229   300.987   22.655    
119.2     13666.5   0.0115938 53.5839   301.126   22.6557   
119.3     13622.8   0.0115977 53.4423   301.268   22.6379   
119.4     13585.2   0.0115952 53.3067   301.403   22.6408   
119.5     13538.1   0.0115968 53.1696   301.541   22.596    
119.6     13496.8   0.0115958 53.0304   301.68    22.6492   
119.7     13459.8   0.0115964 52.8939   301.816   22.6391   
119.8     13416.6   0.0115961 52.7569   301.953   22.6513   
119.9     13375.7   0.0115962 52.6154   302.095   22.6313   
120       13332.5   0.0115962 52.4756   302.235   22.6221   
120.1     13290.9   0.0115962 52.3343   302.376   22.6135   
120.2     13245.6   0.0115962 52.1923   302.518   22.5905   
120.3     13207.8   0.0115962 52.057    302.653   22.6699   
120.4     13168     0.0115962 51.9227   302.787   22.6616   
120.5     13129.9   0.0115962 51.7815   302.929   22.7298   
120.6     13083.3   0.0115962 51.6388   303.071   22.7393   
120.7     13042.4   0.0115962 51.4947   303.216   22.7534   
120.8     13005.2   0.0115962 51.3526   303.358   22.7541   
120.9     12954.4   0.0115962 51.2092   303.501   22.7186   
121       12910.5   0.0115962 51.0664   303.644   22.7318   
121.1     12872.5   0.0115962 50.9313   303.779   22.728    
121.2     12833.9   0.0115962 50.7929   303.917   22.7296   
121.3     12793.3   0.0115962 50.6557   304.055   22.7255   
121.4     12749.4   0.0115962 50.513    304.197   22.7335   
121.5     12708     0.0115962 50.3734   304.337   22.7386   
121.6     12665.3   0.0115962 50.2378   304.472   22.7282   
121.7     12628.9   0.0115962 50.1038   304.606   22.7251   
121.8     12589.1   0.0115962 49.969    304.741   22.74     
121.9     12548.1   0.0115962 49.8326   304.878   22.7268   
122       12511.9   0.0115962 49.6966   305.014   22.7356   
122.1     12467.1   0.0115962 49.5575   305.153   22.7236   
122.2     12419.4   0.0115962 49.4162   305.294   22.7578   
122.3     12383.7   0.0115962 49.2802   305.43    22.7781   
122.4     12344.9   0.0115962 49.1451   305.565   22.7143   
122.5     12301.7   0.0115962 49.0059   305.704   22.732    
122.6     12260.1   0.0115962 48.8624   305.848   22.7228   
122.7     12218.4   0.0115962 48.7199   305.99    22.7291   
122.8     12177     0.0115962 48.5739   306.136   22.7323   
122.9     12132.6   0.0115962 48.4302   306.28    22.7325   
123       12092.9   0.0115962 48.291    306.419   22.732    
123.1     12049.8   0.0115962 48.1454   306.565   22.7312   
123.2     12007.9   0.0115962 48.0032   306.707   22.7356   
123.3     11964.3   0.0115962 47.8608   306.849   22.7304   
123.4     11920     0.0115962 47.7196   306.991   22.7328   
123.5     11881     0.0115962 47.5837   307.127   22.7172   
123.6     11835.1   0.0115962 47.4445   307.266   22.7442   
123.7     11799.4   0.0115962 47.3039   307.406   22.669    
123.8     11753.7   0.0115962 47.1599   307.55    22.6328   
123.9     11709.6   0.0115962 47.0166   307.694   22.5916   
124       11670.9   0.0115962 46.8756   307.835   22.6574   
124.1     11631.4   0.0115962 46.7337   307.976   22.6264   
124.2     11590     0.0115962 46.5926   308.118   22.5718   
124.3     11547.7   0.0115962 46.4471   308.263   22.6297   
124.4     11505.3   0.0115962 46.3046   308.406   22.6596   
124.5     11461.8   0.0115962 46.1657   308.544   22.6527   
124.6     11421     0.0115962 46.0214   308.689   22.65     
124.7     11377.3   0.0115962 45.8807   308.83    22.6238   
124.8     11341.3   0.0115962 45.7402   308.97    22.6134   
124.9     11295.7   0.0115962 45.5957   309.115   22.6324   
125       11255.1   0.0115962 45.4505   309.26    22.6324   
125.1     11215.2   0.0115962 45.3131   309.397   22.7118   
125.2     11175.1   0.0115962 45.1726   309.538   22.7388   
125.3     11133.2   0.0115962 45.0281   309.682   22.7311   
125.4     11090.2   0.0115962 44.8845   309.826   22.7216   
125.5     11048.3   0.0115962 44.7407   309.97    22.7481   
125.6     11004     0.0115962 44.5973   310.113   22.7382   
125.7     10968.6   0.0115962 44.4587   310.252   22.7383   
125.8     10925.7   0.0115962 44.322    310.388   22.7311   
125.9     10885.4   0.0115962 44.1812   310.529   22.7453   
126       10849.6   0.0115962 44.0433   310.667   22.6557   
126.1     10804     0.0115962 43.9      310.81    22.5882   
126.2     10762.9   0.0115962 43.7578   310.952   22.6666   
126.3     10716.9   0.0115962 43.6189   311.091   22.6461   
126.4     10684.7   0.0115962 43.4812   311.229   22.612    
126.5     10641.9   0.0115962 43.3377   311.373   22.6093   
126.6     10603.1   0.0115962 43.1973   311.513   22.6381   
126.7     10555.8   0.0115963 43.0551   311.655   22.6574   
126.8     10520.2   0.0115961 42.9096   311.801   22.6829   
126.9     10480.3   0.0115965 42.7675   311.943   22.6165   
127       10432.2   0.0115958 42.6151   312.095   22.6323   
127.1     10395     0.011597  42.4714   312.239   22.6429   
127.2     10346.9   0.011595  42.3231   312.387   22.585    
127.3     10308.6   0.0115982 42.1776   312.533   22.6194   
127.4     10264.7   0.0115932 42.0351   312.675   22.6608   
127.5     10227.2   0.011601  41.8936   312.817   22.667    
127.6     10190     0.0115063 41.7546   312.956   22.6563   
127.7     10146.4   0.0114734 41.607    313.103   22.6668   
127.8     10101     0.0114837 41.4635   313.247   22.6704   
127.9     10066     0.0114781 41.3232   313.387   22.6564   
128       10021.9   0.0114816 41.1781   313.532   22.672    
128.1     9979.37   0.0114794 41.0341   313.676   22.6456   
128.2     9941.21   0.0114808 40.8896   313.821   22.6346   
128.3     9900.66   0.0114799 40.7448   313.965   22.6353   
128.4     9862.57   0.0114804 40.6008   314.109   22.5931   
128.5     9817.65   0.0114801 40.4502   314.26    22.6724   
128.6     9775.93   0.0114803 40.3044   314.406   22.6687   
128.7     9730.24   0.0114803 40.1613   314.549   22.5854   
128.8     9691.4    0.0114803 40.0182   314.692   22.6392   
128.9     9654.03   0.0114803 39.8783   314.832   22.6312   
129       9608.58   0.0114803 39.7324   314.978   22.658    
129.1     9570.3    0.0114803 39.594    315.116   22.6408   
129.2     9531.17   0.0114803 39.4514   315.259   22.617    
129.3     9489.16   0.0114803 39.3078   315.402   22.6564   
129.4     9446.19   0.0114803 39.1627   315.548   22.6184   
129.5     9408.98   0.0114803 39.0187   315.691   22.6454   
129.6     9370.68   0.0114803 38.8764   315.834   22.6259   
129.7     9325.41   0.0114803 38.7289   315.981   22.6558   
129.8     9285.75   0.0114803 38.5845   316.126   22.6056   
129.9     9241.21   0.0114803 38.4386   316.272   22.6263   
130       9200.22   0.0114803 38.2916   316.419   22.6677   
130.1     9164.6    0.0114803 38.1462   316.564   22.6577   
130.2     9122.24   0.0114803 38.0001   316.71    22.6225   
130.3     9076.94   0.0114803 37.8518   316.858   22.642    
130.4     9035.44   0.0114803 37.7049   317.005   22.6582   
130.5     8994.74   0.0114803 37.5634   317.147   22.6709   
130.6     8958.5    0.0114803 37.4217   317.288   22.6638   
130.7     8918.07   0.0114803 37.2769   317.433   22.6266   
130.8     8874.78   0.0114803 37.1286   317.582   22.6131   
130.9     8831.81   0.0114803 36.9806   317.73    22.6328   
131       8788.19   0.0114803 36.8348   317.875   22.626    
131.1     8752.87   0.0114803 36.6925   318.018   22.568    
131.2     8710.41   0.0114803 36.5446   318.166   22.628    
131.3     8669.22   0.0114803 36.3971   318.313   22.6707   
131.4     8626.48   0.0114803 36.2522   318.458   22.6558   
131.5     8587.43   0.0114803 36.1062   318.604   22.6033   
131.6     8543.94   0.0114803 35.9598   318.75    22.6446   
131.7     8508.76   0.0114803 35.8108   318.899   22.651    
131.8     8461.43   0.0114803 35.6538   319.056   22.6718   
131.9     8416.32   0.0114803 35.4996   319.211   22.6675   
132       8374.44   0.0114803 35.3494   319.361   22.6664   
132.1     8334.24   0.0114803 35.1982   319.512   22.678    
132.2     8289.49   0.0114803 35.0498   319.66    22.6629   
132.3     8245.02   0.0114803 34.901    319.809   22.6712   
132.4     8211.12   0.0114803 34.7532   319.957   22.6686   
132.5     8172.75   0.0114803 34.6062   320.104   22.6419   
132.6     8125.15   0.0114803 34.4545   320.256   22.6588   
132.7     8081.66   0.0114803 34.3008   320.409   22.6831   
132.8     8040.94   0.0114803 34.1507   320.56    22.6091   
132.9     7995.88   0.0114803 34.0008   320.709   22.6044   
133       7955.11   0.0114803 33.8538   320.856   22.6379   
133.1     7917.41   0.0114803 33.7063   321.004   22.6453   
133.2     7877.64   0.0114803 33.562    321.148   22.6552   
133.3     7832.29   0.0114803 33.4122   321.298   22.5941   
133.4     7793.15   0.0114803 33.2633   321.447   22.6609   
133.5     7751.52   0.0114803 33.1174   321.593   22.6704   
133.6     7709.82   0.0114803 32.9701   321.74    22.6602   
133.7     7670.15   0.0114803 32.8209   321.889   22.6551   
133.8     7632.14   0.0114803 32.6675   322.043   22.6683   
133.9     7586.49   0.0114803 32.5164   322.194   22.6578   
134       7548.47   0.0114803 32.3644   322.346   22.6692   
134.1     7502.92   0.0114803 32.2158   322.494   22.6273   
134.2     7458.55   0.0114803 32.0649   322.645   22.6504   
134.3     7420.93   0.0114803 31.917    322.793   22.675    
134.4     7384.21   0.0114803 31.7703   322.94    22.6517   
134.5     7340.64   0.0114803 31.618    323.092   22.6493   
134.6     7300.37   0.0114803 31.4675   323.243   22.6658   
134.7     7254.87   0.0114803 31.3202   323.39    22.6714   
134.8     7217.91   0.0114803 31.172    323.538   22.6647   
134.9     7178.17   0.0114803 31.0242   323.686   22.635    
135       7131.49   0.0114803 30.8708   323.839   22.6676   
135.1     7096.06   0.0114803 30.7218   323.988   22.6287   
135.2     7049.95   0.0114803 30.5735   324.137   22.6235   
135.3     7009.94   0.0114803 30.4237   324.287   22.5887   
135.4     6973.92   0.0114803 30.2759   324.434   22.6498   
135.5     6933.66   0.0114803 30.1258   324.584   22.6715   
135.6     6889.57   0.0114803 29.977    324.733   22.6663   
135.7     6847.65   0.0114803 29.8241   324.886   22.6599   
135.8     6808.39   0.0114803 29.6678   325.042   22.6746   
135.9     6761.97   0.0114803 29.5152   325.195   22.6557   
136       6721.6    0.0114803 29.3588   325.351   22.649    
136.1     6681.23   0.0114803 29.2061   325.504   22.6768   
136.2     6637.52   0.0114803 29.0566   325.654   22.6599   
136.3     6597.96   0.0114803 28.9041   325.806   22.6691   
136.4     6561.24   0.0114803 28.7547   325.956   22.6597   
136.5     6517.19   0.0114803 28.5997   326.11    22.6889   
136.6     6471.67   0.0114803 28.4415   326.269   22.7159   
136.7     6429.33   0.0114803 28.2928   326.417   22.7763   
136.8     6393.42   0.0114803 28.1456   326.565   22.7689   
136.9     6354.93   0.0114804 28.0005   326.71    22.7158   
137       6312.63   0.0114801 27.8528   326.857   22.7352   
137.1     6275.84   0.0114807 27.7097   327.001   22.767    
137.2     6235.85   0.0114797 27.5578   327.152   22.7276   
137.3     6192.76   0.0114813 27.4051   327.305   22.7558   
137.4     6154.28   0.0114787 27.2545   327.456   22.7804   
137.5     6115.28   0.0114827 27.1024   327.608   22.7351   
137.6     6071.93   0.0114763 26.9497   327.76    22.7348   
137.7     6034.03   0.011488  26.7971   327.913   22.7469   
137.8     5993.05   0.0114489 26.6498   328.06    22.7473   
137.9     5951.12   0.0113565 26.5059   328.204   22.7316   
138       5914.85   0.0113682 26.3576   328.353   22.7298   
138.1     5875.3    0.0113618 26.2077   328.503   22.7259   
138.2     5836.06   0.0113658 26.0592   328.651   22.7306   
138.3     5794.47   0.0113633 25.9136   328.797   22.7392   
138.4     5756.3    0.0113649 25.7675   328.943   22.7358   
138.5     5718.2    0.0113639 25.6163   329.094   22.7468   
138.6     5677.2    0.0113645 25.4638   329.246   22.7176   
138.7     5634.07   0.0113642 25.3111   329.399   22.8025   
138.8     5594.86   0.0113643 25.159    329.551   22.7436   
138.9     5553.9    0.0113643 25.0037   329.707   22.7551   
139       5519.58   0.0113643 24.8501   329.86    22.76     
139.1     5473.67   0.0113643 24.6964   330.014   22.7343   
139.2     5429.29   0.0113643 24.5405   330.17    22.7339   
139.3     5389.84   0.0113643 24.3899   330.32    22.7611   
139.4     5350.81   0.0113643 24.2374   330.473   22.7548   
139.5     5312.23   0.0113643 24.0851   330.625   22.7334   
139.6     5270.61   0.0113643 23.9277   330.783   22.7864   
139.7     5225.42   0.0113643 23.7711   330.939   22.7991   
139.8     5190.05   0.0113643 23.6183   331.092   22.7644   
139.9     5149.16   0.0113643 23.4587   331.251   22.724    
140       5100.57   0.0113643 23.2992   331.411   22.7464   
140.1     5058.43   0.0113643 23.1433   331.567   22.7305   
140.2     5026.42   0.0113643 22.9935   331.717   22.7393   
140.3     4983.27   0.0113643 22.8364   331.874   22.7262   
140.4     4945.85   0.0113643 22.6811   332.029   22.7652   
140.5     4899.86   0.0113643 22.5233   332.187   22.7339   
140.6     4856.6    0.0113643 22.3651   332.345   22.7351   
140.7     4820.09   0.0113643 22.2092   332.501   22.7348   
140.8     4775.62   0.0113643 22.0546   332.656   22.7641   
140.9     4738.93   0.0113643 21.9012   332.809   22.7474   
141       4695.4    0.0113643 21.7497   332.961   22.7345   
141.1     4662.04   0.0113643 21.5936   333.117   22.7379   
141.2     4621.75   0.0113643 21.4366   333.274   22.7331   
141.3     4575.31   0.0113643 21.2789   333.431   22.7334   
141.4     4535.85   0.0113643 21.12     333.59    22.7356   
141.5     4497.44   0.0113643 20.9629   333.747   22.733    
141.6     4455.31   0.0113643 20.8058   333.904   22.7409   
141.7     4415.1    0.0113643 20.6452   334.065   22.7912   
141.8     4372.76   0.0113643 20.4891   334.221   22.7201   
141.9     4329.79   0.0113643 20.3273   334.383   22.7727   
142       4288.96   0.0113643 20.1676   334.543   22.7786   
142.1     4253.95   0.0113643 20.0124   334.698   22.8004   
142.2     4212.39   0.0113643 19.8555   334.855   22.7374   
142.3     4167.38   0.0113643 19.6963   335.014   22.7293   
142.4     4129.75   0.0113643 19.5375   335.173   22.7407   
142.5     4085.31   0.0113643 19.3821   335.328   22.7353   
142.6     4051.21   0.0113643 19.2232   335.487   22.731    
142.7     4009.08   0.0113643 19.0652   335.645   22.7396   
142.8     3968.18   0.0113643 18.9038   335.806   22.7292   
142.9     3925.18   0.0113643 18.7448   335.965   22.724    
143       3883.63   0.0113643 18.587    336.123   22.7212   
143.1     3846.11   0.0113643 18.4302   336.28    22.7599   
143.2     3803.93   0.0113643 18.2755   336.435   22.756    
143.3     3767.01   0.0113643 18.1183   336.592   22.8017   
143.4     3723.73   0.0113643 17.9612   336.749   22.7137   
143.5     3679.54   0.0113643 17.7998   336.91    22.6587   
143.6     3645.89   0.0113643 17.645    337.065   22.6615   
143.7     3600.42   0.0113643 17.4879   337.222   22.658    
143.8     3562.04   0.0113643 17.3233   337.387   22.6649   
143.9     3527.04   0.0113643 17.1652   337.545   22.6494   
144       3480.66   0.0113643 17.0037   337.707   22.6637   
144.1     3437.19   0.0113643 16.8383   337.872   22.6606   
144.2     3399.41   0.0113643 16.6791   338.031   22.6666   
144.3     3358.69   0.0113643 16.5191   338.191   22.663    
144.4     3319.34   0.0113643 16.3551   338.355   22.6651   
144.5     3275.38   0.0113643 16.1941   338.516   22.6529   
144.6     3236.99   0.0113643 16.0286   338.682   22.67     
144.7     3193.16   0.0113643 15.8658   338.844   22.6629   
144.8     3152.82   0.0113643 15.7051   339.005   22.7343   
144.9     3114.84   0.0113643 15.549    339.161   22.8049   
145       3072.33   0.0113643 15.3863   339.324   22.7585   
145.1     3032.77   0.0113643 15.2267   339.484   22.7359   
145.2     2994.27   0.0113643 15.067    339.643   22.7377   
145.3     2952.18   0.0113643 14.9021   339.808   22.727    
145.4     2912.75   0.0113643 14.7393   339.971   22.751    
145.5     2875.06   0.0113643 14.5765   340.134   22.7932   
145.6     2829.83   0.0113643 14.4113   340.299   22.7646   
145.7     2793.96   0.0113643 14.2485   340.462   22.8202   
145.8     2750.93   0.0113643 14.0835   340.627   22.6841   
145.9     2707.89   0.0113643 13.9176   340.793   22.6348   
146       2669.49   0.0113643 13.757    340.953   22.6538   
146.1     2629.44   0.0113643 13.5973   341.113   22.6594   
146.2     2587.93   0.0113643 13.4324   341.278   22.6535   
146.3     2548.17   0.0113643 13.2691   341.441   22.6728   
146.4     2511.03   0.0113643 13.1077   341.603   22.662    
146.5     2463.23   0.0113643 12.941    341.769   22.669    
146.6     2426.93   0.0113643 12.7763   341.934   22.6653   
146.7     2384.35   0.0113643 12.6144   342.096   22.6697   
146.8     2348.32   0.0113643 12.4482   342.262   22.669    
146.9     2308.79   0.0113643 12.2859   342.424   22.6566   
147       2265.33   0.0113643 12.1152   342.595   22.6165   
147.1     2224.83   0.0113643 11.9533   342.757   22.6996   
147.2     2184.52   0.0113643 11.7883   342.922   22.7372   
147.3     2146.92   0.0113643 11.6284   343.082   22.7348   
147.4     2103.73   0.0113643 11.4641   343.246   22.7376   
147.5     2065.09   0.0113643 11.297    343.413   22.7432   
147.6     2024.37   0.0113643 11.1345   343.576   22.7327   
147.7     1985.33   0.0113643 10.9657   343.744   22.7501   
147.8     1942.65   0.0113643 10.7994   343.911   22.758    
147.9     1901.13   0.0113643 10.6297   344.08    22.7223   
148       1859.08   0.0113644 10.4547   344.255   22.7318   
148.1     1817.58   0.0113642 10.2858   344.424   22.7459   
148.2     1776.96   0.0113646 10.1156   344.595   22.7346   
148.3     1736.09   0.0113638 9.94441   344.766   22.7402   
148.4     1693.12   0.0113651 9.77367   344.937   22.728    
148.5     1656.03   0.0113631 9.59992   345.11    22.8015   
148.6     1616.67   0.0113662 9.43175   345.278   22.8034   
148.7     1578.95   0.0113613 9.26103   345.449   22.7449   
148.8     1534.41   0.0113691 9.09249   345.618   22.7316   
148.9     1493.98   0.0112744 8.91868   345.792   22.7413   
149       1456.2    0.0112415 8.74869   345.962   22.7231   
149.1     1413.53   0.0112518 8.5752    346.135   22.7558   
149.2     1371.3    0.0112462 8.40047   346.31    22.7184   
149.3     1336.31   0.0112497 8.23095   346.479   22.7857   
149.4     1293.31   0.0112474 8.05575   346.654   22.7499   
149.5     1248.66   0.0112488 7.88383   346.826   22.6523   
149.6     1217.66   0.011248  7.71361   346.997   22.674    
149.7     1171.58   0.0112485 7.54102   347.169   22.6653   
149.8     1137.41   0.0112482 7.36343   347.347   22.667    
149.9     1090.54   0.0112483 7.19102   347.519   22.6577   
150       1052.66   0.0112483 7.01623   347.694   22.6586   
150.1     1017.25   0.0112483 6.84463   347.866   22.6557   
150.2     976.828   0.0112483 6.67138   348.039   22.6611   
150.3     941.562   0.0112483 6.49798   348.212   22.6811   
150.4     900.942   0.0112483 6.31855   348.392   22.7388   
150.5     859.446   0.0112483 6.13764   348.573   22.7272   
150.6     822.631   0.0112483 5.95844   348.752   22.7018   
150.7     787.759   0.0112483 5.77622   348.934   22.7467   
150.8     745.648   0.0112483 5.59172   349.119   22.7367   
150.9     705.791   0.0112483 5.39996   349.31    22.7369   
151       665.096   0.0112483 5.2146    349.496   22.7161   
151.1     626.38    0.0112483 5.02618   349.684   22.736    
151.2     585.742   0.0112483 4.84117   349.869   22.7391   
151.3     545.537   0.0112483 4.65137   350.059   22.7347   
151.4     503.633   0.0112483 4.46379   350.246   22.7528   
151.5     462.925   0.0112483 4.27398   350.436   22.7476   
151.6     423.32    0.0112483 4.08398   350.626   22.7415   
151.7     384.981   0.0112483 3.8958    350.814   22.7349   
151.8     349.442   0.0112483 3.7042    351.006   22.7354   
151.9     312.454   0.0112483 3.51021   351.2     22.8178   
152       271.58    0.0112483 3.31416   351.396   22.7602   
152.1     234.567   0.0112483 3.11658   351.594   22.7578   
152.2     201.074   0.0112483 2.91835   351.792   22.8441   
152.3     163.953   0.0112483 2.7153    351.995   22.8065   
152.4     134.991   0.0112483 2.50558   352.205   22.8474   
152.5     98.8032   0.0112483 2.29476   352.415   22.799    
152.6     69.4701   0.0112483 2.07481   352.635   22.813    
152.7     38.378    0.0112483 1.85725   352.853   22.7712   
152.8     9.31428   0.0112483 1.62033   353.09    22.816    
152.9     -14.5537  0.0112483 1.38748   353.323   22.7718   
153       -29.037   0.0112483 1.12956   353.581   22.8707   
153.1     -10.2116  0.0112483 0.884856  353.825   22.7334   

**END