**HEADER
RELEASE   Release of TYDEX-Format                 1.3
MEASID    Measurement ID                          cvert_2p7_13fz342_P00cam0_G07_dP90_110198_02
SUPPLIER  Data Supplier                           ika-fka / SteiReP / friederichs
DATE      Date                                    30/01/20
CLCKTIME  Clocktime                               14:07

**COMMENTS
------------------------------------
Bridgestone Potenza S001 MO 245/50R18 100W DOT4918
Vertical tyre stiffness on flat surface on longitudinal cleat at 0 deg camber
------------------------------------

**CONSTANTS
LOCATION  Location                      -         ika-fka, Aachen
MANUFACT  Tyre brand name               -         Bridgestone
IDENTITY  Commercial name               -         Potenza S001 MO
INFLPRES  Inflation Pressure            bar       2.7
TYREMASS  Tyre mass                     kg        11.95
OVALLDIA  Measured outside diameter     m         0.708
NOMDIAME  Nominal diameter of tyre      m         0.7022
NOMWIDTH  Nominal section width of tyre m         0.245
ASPRATIO  Nominal aspect ratio          -         0.5
SPEEDSYM  Speed symbol                  -         W
LOADIND   Load index                    -         100
TYROTIN   Tyre rot. inertia about YC    kgm2      1.233
RIMDIAME  Nominal rim diameter          m         0.4572
RIMWIDTH  Rim width                     m         0.2032
RIMROTIN  Rim rotational inertia        kgm2      0.386
TESTRIG   Test rig                      -         Stiffness Tyre Test Rig
CURVTRSF  Curvature of track surface    1/m       0
TRCKSURF  Surface of Track              -         Korund P80
TRCKCOND  Condition of Track Surface    -         dry
OBSTTYPE  Type of obstacle              -         G07
OBSTSURF  Surface of obstacle           -         Steel
CLEAT_H   Cleat height                  m         0.01
CLEAT_L   Cleat length                  m         0.02
CLT_BVED  Cleat bevel edge              m         0.002
CLT_ORI   Cleat orientation             deg       90
SLIPANGL  Slip angle                    deg       0
INCLANGL  Inclination angle             deg       0
LONGVEL   Longitudinal velocity         m/s       0

**MEASURCHANNELS
RUNTIME   Running Time                  s         1         0         0
FZW       Vertical Force                N         1         0         0
INCLANGL  Inclination angle             deg       1         0         0
TYREDEFW  Tyre deflection               mm        1         0         0
DSTGRWHC  Dist. ground - WHL. centre    mm        1         0         0
TRDTEMP   Tread Surface Temperature     deg C     1         0         0

**MEASURDATA
0         -2.93042  0.0111324 -0.0493928 354.041   22.6646   
0.1       9.70633   0.0111324 0.163602  353.828   22.6537   
0.2       30.1323   0.0111324 0.365875  353.626   22.6623   
0.3       55.1267   0.0111324 0.539238  353.452   22.6627   
0.4       72.4641   0.0111324 0.691686  353.3     22.6664   
0.5       87.8508   0.0111324 0.836193  353.155   22.631    
0.6       107.121   0.0111324 0.989331  353.002   22.6481   
0.7       127.535   0.0111324 1.14703   352.844   22.6584   
0.8       144.599   0.0111324 1.30658   352.685   22.6665   
0.9       166.634   0.0111324 1.50049   352.491   22.6484   
1         192.605   0.0111324 1.73401   352.257   22.6548   
1.1       224.349   0.0111324 1.98518   352.006   22.6641   
1.2       261.353   0.0111324 2.25637   351.735   22.6596   
1.3       292.292   0.0111324 2.52703   351.464   22.6579   
1.4       327.697   0.0111324 2.81393   351.177   22.6566   
1.5       369.937   0.0111324 3.10091   350.891   22.6635   
1.6       404.982   0.0111324 3.38888   350.603   22.6613   
1.7       447.109   0.0111324 3.68537   350.306   22.6616   
1.8       485.718   0.0111324 3.98118   350.01    22.6568   
1.9       523.051   0.0111324 4.2711    349.72    22.6553   
2         559.31    0.0111324 4.57065   349.421   22.666    
2.1       603.94    0.0111324 4.886     349.105   22.6483   
2.2       640.84    0.0111324 5.19335   348.798   22.6614   
2.3       686.369   0.0111324 5.50449   348.487   22.664    
2.4       731.178   0.0111324 5.80743   348.184   22.6665   
2.5       772.266   0.0111324 6.11712   347.874   22.6513   
2.6       815.253   0.0111324 6.42301   347.568   22.6536   
2.7       857.494   0.0111324 6.72346   347.268   22.6572   
2.8       900.762   0.0111324 7.03001   346.961   22.6676   
2.9       938.258   0.0111324 7.32397   346.667   22.6548   
3         983.414   0.0111324 7.61954   346.372   22.6612   
3.1       1022.65   0.0111324 7.91643   346.075   22.6476   
3.2       1070.72   0.0111324 8.21308   345.778   22.6541   
3.3       1109.47   0.0111324 8.49308   345.498   22.653    
3.4       1146.85   0.0111324 8.79059   345.201   22.6573   
3.5       1192.39   0.0111324 9.09575   344.896   22.6674   
3.6       1235.59   0.0111324 9.40039   344.591   22.6598   
3.7       1280.04   0.0111324 9.69962   344.292   22.6542   
3.8       1323.09   0.0111324 9.9913    344       22.6612   
3.9       1365.3    0.0111324 10.2838   343.708   22.6594   
4         1401.42   0.0111324 10.5691   343.422   22.6558   
4.1       1441.63   0.0111324 10.8607   343.131   22.6698   
4.2       1486.04   0.0111324 11.1441   342.847   22.6494   
4.3       1527.82   0.0111324 11.4308   342.561   22.6581   
4.4       1571.53   0.0111324 11.7195   342.272   22.6606   
4.5       1610.57   0.0111324 12.0124   341.979   22.6682   
4.6       1653.9    0.0111324 12.3032   341.688   22.6663   
4.7       1698.71   0.0111324 12.5891   341.402   22.6613   
4.8       1739.67   0.0111324 12.8718   341.12    22.6639   
4.9       1778.78   0.0111324 13.1559   340.835   22.6513   
5         1826.49   0.0111324 13.4334   340.558   22.6621   
5.1       1862.2    0.0111324 13.7058   340.286   22.6689   
5.2       1906.23   0.0111324 13.9849   340.006   22.6533   
5.3       1944.64   0.0111324 14.2493   339.742   22.6487   
5.4       1982.61   0.0111324 14.523    339.468   22.6664   
5.5       2025.57   0.0111324 14.7967   339.195   22.6663   
5.6       2061.89   0.0111324 15.0711   338.92    22.6651   
5.7       2099.99   0.0111324 15.344    338.647   22.6693   
5.8       2143.47   0.0111324 15.6222   338.369   22.6567   
5.9       2183.76   0.0111324 15.8928   338.099   22.6229   
6         2223.79   0.0111322 16.1671   337.824   22.6599   
6.1       2263.9    0.0111326 16.4468   337.545   22.6588   
6.2       2307.09   0.0111319 16.7168   337.275   22.6577   
6.3       2348.73   0.011133  16.9882   337.003   22.6552   
6.4       2386.33   0.0111312 17.2596   336.732   22.6637   
6.5       2429.56   0.0111341 17.5192   336.472   22.6581   
6.6       2468.65   0.0111295 17.7744   336.217   22.669    
6.7       2506.25   0.011137  18.0383   335.953   22.6613   
6.8       2547.6    0.0111231 18.2979   335.693   22.6626   
6.9       2596.21   0.0112037 18.5573   335.434   22.6637   
7         2648.31   0.011257  18.8125   335.179   22.6653   
7.1       2697.83   0.0112439 19.0448   334.947   22.6617   
7.2       2752.11   0.0112511 19.2665   334.725   22.6617   
7.3       2800.15   0.0112466 19.4638   334.528   22.6579   
7.4       2838.86   0.0112495 19.6459   334.345   22.6669   
7.5       2885.06   0.0112477 19.8326   334.159   22.6594   
7.6       2925.01   0.0112488 20.0036   333.988   22.655    
7.7       2960.33   0.0112481 20.1703   333.821   22.6658   
7.8       3002.11   0.0112485 20.355    333.636   22.6638   
7.9       3049.97   0.0112483 20.5239   333.468   22.6637   
8         3085.53   0.0112483 20.6894   333.302   22.6628   
8.1       3126.26   0.0112483 20.8575   333.134   22.6555   
8.2       3169.3    0.0112483 21.0283   332.963   22.6632   
8.3       3208.9    0.0112483 21.1904   332.801   22.6353   
8.4       3247.26   0.0112483 21.3519   332.64    22.5712   
8.5       3293.78   0.0112483 21.524    332.467   22.6461   
8.6       3333.92   0.0112483 21.6925   332.299   22.6664   
8.7       3376.24   0.0112483 21.8624   332.129   22.6331   
8.8       3414.83   0.0112483 22.0252   331.966   22.663    
8.9       3457.18   0.0112483 22.1915   331.8     22.6607   
9         3494.06   0.0112483 22.3596   331.632   22.6568   
9.1       3539.57   0.0112483 22.5286   331.463   22.6617   
9.2       3583.72   0.0112483 22.685    331.306   22.6704   
9.3       3620.06   0.0112483 22.8425   331.149   22.653    
9.4       3654.87   0.0112483 23.0073   330.984   22.6181   
9.5       3703.31   0.0112483 23.1675   330.824   22.6639   
9.6       3740.24   0.0112483 23.3192   330.672   22.6619   
9.7       3777.18   0.0112483 23.475    330.516   22.6715   
9.8       3818.85   0.0112483 23.6275   330.364   22.6453   
9.9       3857.43   0.0112483 23.7803   330.211   22.6539   
10        3893.72   0.0112483 23.9372   330.054   22.67     
10.1      3933.57   0.0112483 24.0974   329.894   22.6568   
10.2      3975.72   0.0112483 24.2639   329.728   22.6615   
10.3      4016.16   0.0112483 24.4194   329.572   22.6661   
10.4      4058.74   0.0112483 24.5789   329.413   22.6609   
10.5      4096.94   0.0112483 24.7271   329.264   22.6506   
10.6      4133.57   0.0112483 24.8736   329.118   22.6619   
10.7      4167.97   0.0112483 25.0162   328.975   22.6615   
10.8      4208.91   0.0112483 25.1631   328.828   22.6701   
10.9      4246.85   0.0112483 25.3174   328.674   22.656    
11        4286.32   0.0112483 25.4667   328.525   22.6722   
11.1      4322.68   0.0112483 25.6234   328.368   22.6237   
11.2      4362.63   0.0112483 25.7823   328.209   22.6316   
11.3      4404.37   0.0112483 25.9366   328.055   22.6735   
11.4      4443.81   0.0112483 26.0897   327.902   22.6407   
11.5      4485.13   0.0112483 26.2444   327.747   22.6785   
11.6      4523.57   0.0112483 26.3986   327.593   22.6419   
11.7      4564.97   0.0112483 26.549    327.442   22.6004   
11.8      4603.51   0.0112483 26.6916   327.3     22.6566   
11.9      4637.36   0.0112483 26.8404   327.151   22.6607   
12        4682.88   0.0112483 26.9944   326.997   22.6688   
12.1      4720.8    0.0112483 27.1469   326.845   22.6601   
12.2      4758.39   0.0112483 27.2961   326.695   22.6558   
12.3      4801.44   0.0112483 27.4533   326.538   22.6631   
12.4      4840.23   0.0112483 27.6077   326.384   22.6586   
12.5      4882.05   0.0112483 27.7564   326.235   22.667    
12.6      4922.49   0.0112483 27.9134   326.078   22.6638   
12.7      4959.53   0.0112483 28.0782   325.913   22.5714   
12.8      5009.54   0.0112483 28.2401   325.751   22.6433   
12.9      5047.48   0.0112483 28.3861   325.605   22.6352   
13        5081.38   0.0112483 28.546    325.445   22.6395   
13.1      5130.8    0.0112483 28.7038   325.288   22.6613   
13.2      5168.81   0.0112483 28.8567   325.135   22.6685   
13.3      5212.3    0.0112483 29.0123   324.979   22.6252   
13.4      5252.21   0.0112483 29.1598   324.832   22.6096   
13.5      5289.33   0.0112483 29.3183   324.673   22.6624   
13.6      5332.76   0.0112483 29.47     324.521   22.6296   
13.7      5371.43   0.0112483 29.6185   324.373   22.6259   
13.8      5411.11   0.0112483 29.7775   324.214   22.6295   
13.9      5455.37   0.0112483 29.9288   324.063   22.5942   
14        5493.59   0.0112483 30.0775   323.914   22.6711   
14.1      5533.97   0.0112483 30.2304   323.761   22.6415   
14.2      5573.79   0.0112483 30.3798   323.612   22.5775   
14.3      5615.04   0.0112483 30.5349   323.457   22.6071   
14.4      5656.76   0.0112483 30.6843   323.307   22.6302   
14.5      5699.25   0.0112483 30.8337   323.158   22.5999   
14.6      5738.06   0.0112483 30.9783   323.013   22.6332   
14.7      5774.3    0.0112483 31.1184   322.873   22.6494   
14.8      5812.7    0.0112483 31.2617   322.73    22.6676   
14.9      5852.81   0.0112483 31.4051   322.586   22.6672   
15        5889.51   0.0112483 31.5569   322.435   22.6557   
15.1      5933.87   0.0112483 31.7047   322.287   22.597    
15.2      5973.41   0.0112483 31.8516   322.14    22.6092   
15.3      6011.06   0.0112483 32.0001   321.991   22.6529   
15.4      6053.67   0.0112483 32.148    321.843   22.6262   
15.5      6092.01   0.0112483 32.2935   321.698   22.6409   
15.6      6130.6    0.0112483 32.4411   321.55    22.6521   
15.7      6172.48   0.0112483 32.5944   321.397   22.6607   
15.8      6214.33   0.0112483 32.7464   321.245   22.6614   
15.9      6255.96   0.0112483 32.8981   321.093   22.5983   
16        6294.55   0.0112483 33.0489   320.942   22.6399   
16.1      6336.07   0.0112483 33.2063   320.785   22.6091   
16.2      6384.88   0.0112483 33.3593   320.632   22.6321   
16.3      6427.66   0.0112483 33.4932   320.498   22.6538   
16.4      6458.78   0.0112483 33.6312   320.36    22.6242   
16.5      6496.13   0.0112483 33.7823   320.209   22.6678   
16.6      6537.25   0.0112483 33.9313   320.06    22.6758   
16.7      6578.86   0.0112483 34.0799   319.911   22.6191   
16.8      6619.3    0.0112483 34.2192   319.772   22.6188   
16.9      6655.65   0.0112483 34.3636   319.628   22.6641   
17        6699.48   0.0112483 34.5071   319.484   22.634    
17.1      6735.02   0.0112483 34.646    319.345   22.6081   
17.2      6775.27   0.0112483 34.7923   319.199   22.633    
17.3      6815.23   0.0112483 34.9387   319.053   22.6093   
17.4      6856.42   0.0112483 35.0854   318.906   22.6021   
17.5      6898.67   0.0112483 35.2258   318.766   22.6293   
17.6      6932.17   0.0112483 35.3679   318.624   22.6284   
17.7      6979.77   0.0112483 35.5201   318.471   22.612    
17.8      7018.81   0.0112483 35.6805   318.311   22.6405   
17.9      7067.62   0.0112483 35.8489   318.142   22.6828   
18        7113.53   0.0112483 36.0081   317.983   22.6246   
18.1      7158.14   0.0112483 36.1564   317.835   22.6562   
18.2      7198.47   0.0112483 36.3026   317.689   22.6729   
18.3      7240.4    0.0112483 36.4495   317.542   22.6033   
18.4      7275.96   0.0112483 36.5977   317.394   22.616    
18.5      7318.63   0.0112483 36.7505   317.241   22.6772   
18.6      7363.15   0.0112483 36.8943   317.097   22.6118   
18.7      7400.1    0.0112483 37.0401   316.951   22.6187   
18.8      7444.64   0.0112483 37.1795   316.812   22.6218   
18.9      7481.89   0.0112483 37.311    316.68    22.6051   
19        7515.53   0.0112483 37.4451   316.546   22.5958   
19.1      7554.56   0.0112483 37.5905   316.401   22.6238   
19.2      7598.93   0.0112483 37.739    316.252   22.6161   
19.3      7635.04   0.0112483 37.8721   316.119   22.6724   
19.4      7674.91   0.0112483 38.0189   315.973   22.6203   
19.5      7720.18   0.0112483 38.163    315.828   22.6581   
19.6      7758.66   0.0112483 38.2971   315.694   22.6113   
19.7      7798.93   0.0112483 38.4375   315.554   22.6338   
19.8      7836.88   0.0112483 38.5729   315.419   22.6649   
19.9      7872.39   0.0112483 38.7044   315.287   22.6678   
20        7910.78   0.0112483 38.8411   315.15    22.6663   
20.1      7949.12   0.0112483 38.9777   315.014   22.6612   
20.2      7989.11   0.0112483 39.1249   314.867   22.6734   
20.3      8031.72   0.0112483 39.2645   314.727   22.6485   
20.4      8069.31   0.0112483 39.4041   314.587   22.6236   
20.5      8112.61   0.0112483 39.5443   314.447   22.6595   
20.6      8150.06   0.0112483 39.6842   314.307   22.6673   
20.7      8193.6    0.0112483 39.8204   314.171   22.6662   
20.8      8229.33   0.0112483 39.952    314.039   22.6617   
20.9      8267.48   0.0112483 40.0903   313.901   22.6537   
21        8308.32   0.0112483 40.2248   313.767   22.6336   
21.1      8347.14   0.0112483 40.3651   313.626   22.6098   
21.2      8387.4    0.0112483 40.5055   313.486   22.611    
21.3      8430.34   0.0112483 40.6444   313.347   22.615    
21.4      8468.93   0.0112483 40.7741   313.217   22.6267   
21.5      8502.85   0.0112483 40.9076   313.084   22.6134   
21.6      8541.62   0.0112483 41.0501   312.941   22.6479   
21.7      8578.16   0.0112483 41.1899   312.802   22.6137   
21.8      8624.8    0.0112483 41.3436   312.648   22.6106   
21.9      8669.49   0.0112483 41.4899   312.502   22.6426   
22        8709.26   0.0112483 41.6262   312.365   22.6272   
22.1      8749.23   0.0112483 41.7671   312.224   22.6402   
22.2      8791.64   0.0112483 41.9083   312.083   22.6777   
22.3      8831.68   0.0112483 42.0456   311.946   22.6393   
22.4      8871.59   0.0112483 42.1873   311.804   22.5914   
22.5      8910.6    0.0112483 42.3236   311.668   22.634    
22.6      8952.35   0.0112483 42.4708   311.521   22.641    
22.7      8995.36   0.0112483 42.6079   311.383   22.6452   
22.8      9034.53   0.0112483 42.7446   311.247   22.6758   
22.9      9076.41   0.0112483 42.8764   311.115   22.6659   
23        9114.43   0.0112483 43.004    310.987   22.6648   
23.1      9146.52   0.0112483 43.1374   310.854   22.6778   
23.2      9190.43   0.0112483 43.2776   310.714   22.6518   
23.3      9234.24   0.0112483 43.4201   310.571   22.6583   
23.4      9274.58   0.0112483 43.5498   310.442   22.6435   
23.5      9307.73   0.0112483 43.6839   310.308   22.5888   
23.6      9348.61   0.0112483 43.8284   310.163   22.6127   
23.7      9391.85   0.0112483 43.9644   310.027   22.6663   
23.8      9426.31   0.0112483 44.0979   309.894   22.6352   
23.9      9465.79   0.0112483 44.2301   309.761   22.6724   
24        9509.42   0.0112483 44.359    309.632   22.6676   
24.1      9544.59   0.0112483 44.4905   309.501   22.6677   
24.2      9583.22   0.0112482 44.6236   309.368   22.5988   
24.3      9623.09   0.0112484 44.76     309.231   22.5646   
24.4      9664.64   0.0112481 44.8969   309.094   22.6073   
24.5      9700.8    0.0112486 45.0228   308.969   22.648    
24.6      9736.61   0.0112478 45.1611   308.83    22.6029   
24.7      9781.61   0.011249  45.2974   308.694   22.6184   
24.8      9816.81   0.0112472 45.4351   308.556   22.6341   
24.9      9862.64   0.0112501 45.5717   308.42    22.6694   
25        9900.35   0.0112446 45.7138   308.278   22.6736   
25.1      9943.44   0.0112644 45.8596   308.132   22.6089   
25.2      9987.97   0.0113638 45.9983   307.993   22.6097   
25.3      10030.6   0.0113636 46.126    307.865   22.6593   
25.4      10062.2   0.0113649 46.2568   307.735   22.6286   
25.5      10104.9   0.0113639 46.4001   307.591   22.6381   
25.6      10146     0.0113646 46.5343   307.457   22.576    
25.7      10186.9   0.0113642 46.6742   307.317   22.5978   
25.8      10229.6   0.0113644 46.8071   307.184   22.6749   
25.9      10263.2   0.0113643 46.9362   307.055   22.6534   
26        10305.3   0.0113643 47.0689   306.923   22.6386   
26.1      10340.4   0.0113643 47.1955   306.796   22.5529   
26.2      10379.1   0.0113643 47.3312   306.66    22.6121   
26.3      10421.8   0.0113643 47.4682   306.523   22.5972   
26.4      10459.4   0.0113643 47.5998   306.392   22.6213   
26.5      10500.1   0.0113643 47.7374   306.254   22.589    
26.6      10544.3   0.0113643 47.8724   306.119   22.6094   
26.7      10580.6   0.0113643 48.0027   305.989   22.6812   
26.8      10621     0.0113643 48.1315   305.86    22.5823   
26.9      10658.6   0.0113643 48.2575   305.734   22.5831   
27        10696.6   0.0113643 48.3859   305.606   22.6127   
27.1      10735.7   0.0113643 48.5148   305.477   22.671    
27.2      10776.3   0.0113643 48.6503   305.341   22.6706   
27.3      10811.9   0.0113643 48.7794   305.212   22.6688   
27.4      10849.9   0.0113643 48.9177   305.074   22.662    
27.5      10893.9   0.0113643 49.0615   304.93    22.6622   
27.6      10937     0.0113643 49.1917   304.8     22.6391   
27.7      10976.4   0.0113643 49.3194   304.672   22.6343   
27.8      11015.7   0.0113643 49.454    304.537   22.6501   
27.9      11051.3   0.0113643 49.5847   304.407   22.5798   
28        11089.6   0.0113643 49.7244   304.267   22.6672   
28.1      11135     0.0113643 49.8611   304.13    22.6174   
28.2      11173.3   0.0113643 49.9942   303.997   22.6303   
28.3      11216.6   0.0113643 50.1302   303.861   22.6397   
28.4      11253.8   0.0113643 50.2616   303.73    22.5897   
28.5      11292.3   0.0113643 50.398    303.593   22.6215   
28.6      11337.8   0.0113643 50.5292   303.462   22.6149   
28.7      11373.5   0.0113643 50.6597   303.332   22.6959   
28.8      11416.2   0.0113643 50.7888   303.203   22.628    
28.9      11446.7   0.0113643 50.9163   303.075   22.6244   
29        11492.4   0.0113643 51.0444   302.947   22.6235   
29.1      11529.9   0.0113643 51.1685   302.823   22.6199   
29.2      11563.5   0.0113643 51.2932   302.698   22.6383   
29.3      11600.2   0.0113643 51.4254   302.566   22.6734   
29.4      11644.2   0.0113643 51.5581   302.433   22.5961   
29.5      11681.3   0.0113643 51.6817   302.31    22.6027   
29.6      11715.9   0.0113643 51.8165   302.175   22.6421   
29.7      11762.1   0.0113643 51.9532   302.038   22.6275   
29.8      11804.8   0.0113643 52.0872   301.904   22.5835   
29.9      11842.2   0.0113643 52.2157   301.776   22.5861   
30        11881.2   0.0113643 52.3528   301.639   22.6561   
30.1      11922.1   0.0113643 52.4884   301.503   22.5671   
30.2      11964.9   0.0113643 52.6244   301.367   22.5899   
30.3      12006.6   0.0113643 52.7578   301.234   22.6403   
30.4      12048.1   0.0113643 52.8957   301.096   22.6241   
30.5      12094     0.0113643 53.0282   300.963   22.6631   
30.6      12130.9   0.0113643 53.1558   300.836   22.6351   
30.7      12169     0.0113643 53.2893   300.702   22.6288   
30.8      12210.7   0.0113643 53.4229   300.569   22.627    
30.9      12252.5   0.0113643 53.5542   300.437   22.575    
31        12290.7   0.0113643 53.6886   300.303   22.6136   
31.1      12331.2   0.0113643 53.8314   300.16    22.5548   
31.2      12373     0.0113643 53.9713   300.02    22.593    
31.3      12418.8   0.0113643 54.1116   299.88    22.6177   
31.4      12459.8   0.0113643 54.2438   299.748   22.666    
31.5      12497.9   0.0113643 54.3747   299.617   22.615    
31.6      12541.2   0.0113643 54.5133   299.478   22.6392   
31.7      12581.1   0.0113643 54.6428   299.349   22.6449   
31.8      12622.3   0.0113643 54.7695   299.222   22.6215   
31.9      12663.1   0.0113643 54.9042   299.087   22.6126   
32        12705.3   0.0113643 55.0409   298.951   22.5965   
32.1      12745.4   0.0113643 55.1738   298.818   22.6472   
32.2      12788     0.0113643 55.3085   298.683   22.6568   
32.3      12827.8   0.0113643 55.4421   298.549   22.6586   
32.4      12870.1   0.0113643 55.5769   298.415   22.6562   
32.5      12913.3   0.0113643 55.706    298.285   22.5908   
32.6      12948.4   0.0113643 55.8327   298.159   22.6408   
32.7      12986.7   0.0113643 55.9586   298.033   22.6244   
32.8      13022.3   0.0113643 56.096    297.895   22.5595   
32.9      13063.8   0.0113643 56.2368   297.755   22.6446   
33        13106.7   0.0113643 56.3704   297.621   22.6074   
33.1      13150.3   0.0113643 56.5013   297.49    22.6428   
33.2      13186.7   0.0113643 56.6291   297.362   22.6188   
33.3      13227.3   0.0113643 56.7572   297.234   22.6099   
33.4      13268.9   0.0113643 56.8834   297.108   22.627    
33.5      13308     0.0113643 57.0096   296.982   22.5947   
33.6      13342     0.0113643 57.1388   296.853   22.6365   
33.7      13382.7   0.0113643 57.2538   296.738   22.6543   
33.8      13412.2   0.0113643 57.297    296.694   22.6536   
33.9      13422.7   0.0113643 57.3468   296.645   22.6617   
34        13426.1   0.0113643 57.3334   296.658   22.6646   
34.1      13411.9   0.0113643 57.2706   296.721   22.6114   
34.2      13382     0.0113643 57.1946   296.797   22.6194   
34.3      13346.8   0.0113643 57.1169   296.875   22.6603   
34.4      13314.8   0.0113643 57.0477   296.944   22.6069   
34.5      13290.1   0.0113643 56.9791   297.012   22.6269   
34.6      13260.4   0.0113643 56.8977   297.094   22.6323   
34.7      13229.5   0.0113643 56.8062   297.185   22.5803   
34.8      13186.2   0.0113643 56.703    297.288   22.5698   
34.9      13153.9   0.0113643 56.6038   297.388   22.6665   
35        13119.5   0.0113643 56.4911   297.5     22.6641   
35.1      13071.3   0.0113643 56.3755   297.616   22.6263   
35.2      13027.5   0.0113643 56.2701   297.721   22.5965   
35.3      12994.5   0.0113643 56.1663   297.825   22.6163   
35.4      12953.3   0.0113643 56.0535   297.938   22.6434   
35.5      12910.6   0.0113643 55.9343   298.057   22.6228   
35.6      12869.1   0.0113643 55.8235   298.168   22.5993   
35.7      12829.3   0.0113643 55.7167   298.275   22.6415   
35.8      12793.6   0.0113643 55.604    298.387   22.6158   
35.9      12755.7   0.0113643 55.4895   298.502   22.5855   
36        12707.3   0.0113643 55.3702   298.621   22.6014   
36.1      12669.9   0.0113643 55.2541   298.737   22.6281   
36.2      12626.6   0.0113643 55.1404   298.851   22.5864   
36.3      12586.6   0.0113643 55.0232   298.968   22.6008   
36.4      12547.4   0.0113643 54.909    299.082   22.612    
36.5      12508     0.0113643 54.7938   299.198   22.6582   
36.6      12465.5   0.0113643 54.6787   299.313   22.6123   
36.7      12426.6   0.0113643 54.5632   299.428   22.5819   
36.8      12388.5   0.0113643 54.4516   299.54    22.5805   
36.9      12349.2   0.0113643 54.338    299.653   22.6557   
37        12314.1   0.0113643 54.2215   299.77    22.6321   
37.1      12273.6   0.0113643 54.1055   299.886   22.6151   
37.2      12230.6   0.0113643 53.9819   300.009   22.6477   
37.3      12190.2   0.0113643 53.8645   300.127   22.6754   
37.4      12153.5   0.0113643 53.7494   300.242   22.614    
37.5      12108.9   0.0113643 53.6313   300.36    22.6038   
37.6      12068.5   0.0113643 53.5126   300.479   22.5936   
37.7      12029     0.0113643 53.3918   300.6     22.6441   
37.8      11993.3   0.0113643 53.2785   300.713   22.5666   
37.9      11953.5   0.0113643 53.1613   300.83    22.6138   
38        11915.1   0.0113643 53.0428   300.949   22.5873   
38.1      11875.2   0.0113643 52.9229   301.068   22.5657   
38.2      11834.1   0.0113643 52.8034   301.188   22.6129   
38.3      11797.4   0.0113643 52.6851   301.306   22.6277   
38.4      11759.7   0.0113643 52.5595   301.432   22.5734   
38.5      11714.4   0.0113643 52.4319   301.56    22.5609   
38.6      11672     0.0113643 52.3135   301.678   22.5983   
38.7      11636.9   0.0113643 52.1926   301.799   22.6077   
38.8      11596.7   0.0113643 52.0653   301.926   22.6095   
38.9      11550.1   0.0113643 51.938    302.053   22.6214   
39        11511.1   0.0113643 51.8131   302.178   22.6318   
39.1      11473.2   0.0113643 51.6882   302.303   22.6485   
39.2      11432     0.0113643 51.562    302.429   22.6674   
39.3      11390.2   0.0113643 51.4433   302.548   22.6594   
39.4      11356     0.0113643 51.3156   302.676   22.6804   
39.5      11310.2   0.0113643 51.1855   302.806   22.6177   
39.6      11271.5   0.0113643 51.0591   302.932   22.6061   
39.7      11225.5   0.0113643 50.9299   303.062   22.6232   
39.8      11185.8   0.0113643 50.8087   303.183   22.6117   
39.9      11152.9   0.0113643 50.6832   303.308   22.6398   
40        11111.3   0.0113643 50.5524   303.439   22.6262   
40.1      11068     0.0113643 50.4225   303.569   22.5853   
40.2      11022     0.0113643 50.2912   303.7     22.561    
40.3      10981.9   0.0113643 50.1642   303.827   22.5748   
40.4      10948.1   0.0113643 50.0421   303.949   22.6247   
40.5      10911.1   0.0113643 49.9115   304.08    22.569    
40.6      10859.7   0.0113643 49.7736   304.218   22.6061   
40.7      10822.4   0.0113643 49.653    304.338   22.6031   
40.8      10786     0.0113643 49.5247   304.467   22.5787   
40.9      10741     0.0113643 49.3858   304.606   22.6025   
41        10693.4   0.0113643 49.2537   304.738   22.599    
41.1      10656.9   0.0113643 49.1233   304.868   22.5974   
41.2      10616.7   0.0113643 48.993    304.998   22.6008   
41.3      10576.3   0.0113643 48.8622   305.129   22.5928   
41.4      10536.7   0.0113643 48.7289   305.263   22.6429   
41.5      10493     0.0113643 48.5963   305.395   22.6289   
41.6      10451.7   0.0113643 48.4688   305.523   22.6813   
41.7      10415.3   0.0113643 48.3417   305.65    22.5954   
41.8      10372.8   0.0113643 48.2064   305.785   22.563    
41.9      10329.4   0.0113643 48.0692   305.922   22.5427   
42        10285.5   0.0113643 47.9335   306.058   22.569    
42.1      10244.6   0.0113643 47.8046   306.187   22.5779   
42.2      10205.6   0.0113643 47.6777   306.314   22.5896   
42.3      10168.2   0.0113643 47.5464   306.445   22.613    
42.4      10122.5   0.0113643 47.415    306.576   22.6699   
42.5      10091.1   0.0113643 47.2898   306.702   22.6242   
42.6      10051.7   0.0113643 47.1519   306.84    22.5697   
42.7      10005.8   0.0113643 47.0163   306.975   22.5759   
42.8      9963.77   0.0113643 46.8798   307.112   22.6177   
42.9      9921.79   0.0113643 46.7434   307.248   22.6401   
43        9876.74   0.0113643 46.6127   307.379   22.6047   
43.1      9840.72   0.0113643 46.4793   307.512   22.6274   
43.2      9802.87   0.0113643 46.3441   307.647   22.633    
43.3      9758      0.0113643 46.2077   307.784   22.5965   
43.4      9720.8    0.0113643 46.0787   307.913   22.6252   
43.5      9682.96   0.0113643 45.9461   308.045   22.6423   
43.6      9635.43   0.0113643 45.8068   308.185   22.6031   
43.7      9596.23   0.0113643 45.6789   308.313   22.5568   
43.8      9554.15   0.0113643 45.5469   308.445   22.6105   
43.9      9516.08   0.0113643 45.4128   308.579   22.6383   
44        9475.08   0.0113643 45.2709   308.721   22.6039   
44.1      9432.83   0.0113643 45.1296   308.862   22.5881   
44.2      9390.05   0.0113643 44.9937   308.998   22.5717   
44.3      9349.87   0.0113643 44.863    309.128   22.5726   
44.4      9307.56   0.0113643 44.7272   309.264   22.6588   
44.5      9270.25   0.0113643 44.5941   309.397   22.5678   
44.6      9229.31   0.0113643 44.4609   309.531   22.6071   
44.7      9193.85   0.0113643 44.3219   309.67    22.5977   
44.8      9147.27   0.0113643 44.1805   309.811   22.6442   
44.9      9101.09   0.0113643 44.0496   309.942   22.6309   
45        9068.67   0.0113643 43.9181   310.073   22.6174   
45.1      9028.11   0.0113643 43.7803   310.211   22.6785   
45.2      8984.08   0.0113643 43.6407   310.351   22.6181   
45.3      8945.84   0.0113643 43.5019   310.49    22.5982   
45.4      8906.47   0.0113643 43.3635   310.628   22.5995   
45.5      8864.56   0.0113643 43.2227   310.769   22.5791   
45.6      8819.97   0.0113643 43.0863   310.905   22.6321   
45.7      8783.01   0.0113643 42.9519   311.04    22.6185   
45.8      8745.67   0.0113643 42.8158   311.176   22.5624   
45.9      8699.85   0.0113643 42.6766   311.315   22.6242   
46        8657.05   0.0113643 42.5385   311.453   22.6407   
46.1      8623.09   0.0113643 42.405    311.586   22.6112   
46.2      8581.51   0.0113643 42.2613   311.73    22.5986   
46.3      8540.39   0.0113643 42.1208   311.871   22.5913   
46.4      8498.1    0.0113643 41.9856   312.006   22.6299   
46.5      8459.42   0.0113643 41.8754   312.116   22.6089   
46.6      8428.12   0.0113643 41.7641   312.227   22.6257   
46.7      8394.07   0.0113643 41.6312   312.36    22.5893   
46.8      8354.95   0.0113643 41.4939   312.498   22.6092   
46.9      8316.01   0.0113643 41.3605   312.631   22.6328   
47        8276.57   0.0113643 41.2225   312.769   22.6181   
47.1      8233.58   0.0113643 41.087    312.904   22.5976   
47.2      8198.39   0.0113643 40.9518   313.04    22.6313   
47.3      8155.15   0.0113643 40.8188   313.173   22.6205   
47.4      8116.34   0.0113643 40.6845   313.307   22.6116   
47.5      8080.73   0.0113643 40.5422   313.449   22.6118   
47.6      8039.55   0.0113643 40.4011   313.59    22.644    
47.7      7997.22   0.0113643 40.256    313.735   22.5942   
47.8      7952.47   0.0113643 40.1175   313.874   22.6389   
47.9      7919.05   0.0113643 39.9794   314.012   22.5791   
48        7872.05   0.0113643 39.8331   314.158   22.6106   
48.1      7831.99   0.0113643 39.6943   314.297   22.6107   
48.2      7795.36   0.0113643 39.5549   314.437   22.5836   
48.3      7754.45   0.0113643 39.4121   314.579   22.6432   
48.4      7710.32   0.0113643 39.2707   314.721   22.658    
48.5      7668.56   0.0113643 39.1359   314.856   22.665    
48.6      7631.39   0.0113643 38.9968   314.995   22.6398   
48.7      7594.38   0.0113643 38.8533   315.138   22.6512   
48.8      7557.41   0.0113643 38.7126   315.279   22.6129   
48.9      7512.65   0.0113643 38.5723   315.419   22.6234   
49        7474.26   0.0113643 38.442    315.549   22.6276   
49.1      7437.27   0.0113643 38.3027   315.689   22.6257   
49.2      7397.5    0.0113643 38.1594   315.832   22.606    
49.3      7359.99   0.0113643 38.0213   315.97    22.5856   
49.4      7317.99   0.0113643 37.8694   316.122   22.5941   
49.5      7273.82   0.0113643 37.7251   316.266   22.5497   
49.6      7232.06   0.0113643 37.5882   316.403   22.6113   
49.7      7197.68   0.0113643 37.4525   316.539   22.5812   
49.8      7156.74   0.0113643 37.3064   316.685   22.5993   
49.9      7115.26   0.0113643 37.1576   316.834   22.6176   
50        7072.27   0.0113643 37.0155   316.976   22.6506   
50.1      7035.65   0.0113643 36.8696   317.122   22.5913   
50.2      6991.44   0.0113643 36.7233   317.268   22.5587   
50.3      6948.82   0.0113643 36.5816   317.41    22.6309   
50.4      6915.3    0.0113643 36.4356   317.556   22.6111   
50.5      6872.91   0.0113643 36.2884   317.703   22.5962   
50.6      6830.81   0.0113643 36.1385   317.853   22.6054   
50.7      6793.42   0.0113643 35.988    318.003   22.6531   
50.8      6745.93   0.0113643 35.8422   318.149   22.6441   
50.9      6704.25   0.0113643 35.7023   318.289   22.5809   
51        6670.42   0.0113643 35.5686   318.423   22.5894   
51.1      6629.17   0.0113643 35.423    318.568   22.6006   
51.2      6591.94   0.0113643 35.2848   318.707   22.6242   
51.3      6552.76   0.0113643 35.1369   318.855   22.6649   
51.4      6508.1    0.0113643 34.9876   319.004   22.6217   
51.5      6471.13   0.0113643 34.8464   319.145   22.6054   
51.6      6434.67   0.0113643 34.6982   319.293   22.5892   
51.7      6391.88   0.0113643 34.548    319.443   22.588    
51.8      6348.27   0.0113643 34.4009   319.591   22.6411   
51.9      6311.73   0.0113643 34.2557   319.736   22.6173   
52        6271.16   0.0113643 34.105    319.886   22.5725   
52.1      6224.97   0.0113643 33.9583   320.033   22.5855   
52.2      6189.8    0.0113643 33.8135   320.178   22.6074   
52.3      6152.22   0.0113643 33.6621   320.329   22.6613   
52.4      6109.57   0.0113643 33.5126   320.479   22.6625   
52.5      6063.34   0.0113643 33.3576   320.634   22.6627   
52.6      6024.16   0.0113643 33.2127   320.779   22.5821   
52.7      5989.03   0.0113643 33.0676   320.924   22.6038   
52.8      5946.76   0.0113643 32.9097   321.082   22.627    
52.9      5901.34   0.0113643 32.7534   321.238   22.6019   
53        5862.24   0.0113643 32.604    321.387   22.6263   
53.1      5822.13   0.0113643 32.4474   321.544   22.6135   
53.2      5781.21   0.0113643 32.2932   321.698   22.5763   
53.3      5738.12   0.0113643 32.1366   321.855   22.6387   
53.4      5697.29   0.0113643 31.9835   322.008   22.6672   
53.5      5655.43   0.0113643 31.8356   322.156   22.6057   
53.6      5615.86   0.0113643 31.6923   322.299   22.528    
53.7      5578.4    0.0113643 31.5433   322.448   22.645    
53.8      5537.71   0.0113643 31.3907   322.601   22.6641   
53.9      5498.56   0.0113643 31.2407   322.751   22.6689   
54        5457.24   0.0113644 31.0824   322.909   22.6355   
54.1      5415.04   0.0113642 30.9285   323.063   22.6253   
54.2      5374.22   0.0113645 30.7791   323.212   22.6254   
54.3      5334.61   0.011364  30.6266   323.365   22.5986   
54.4      5296.79   0.0113648 30.4752   323.516   22.6145   
54.5      5257.17   0.0113636 30.3238   323.668   22.6589   
54.6      5212.09   0.0113655 30.1705   323.821   22.6667   
54.7      5175.32   0.0113623 30.0203   323.971   22.6612   
54.8      5135.43   0.0113686 29.8609   324.13    22.6729   
54.9      5094.32   0.0113443 29.703    324.288   22.6606   
55        5048.26   0.0112514 29.5447   324.447   22.6074   
55.1      5008.31   0.0112486 29.3904   324.601   22.6182   
55.2      4968.5    0.0112479 29.2365   324.755   22.5984   
55.3      4929.69   0.0112486 29.0813   324.91    22.6272   
55.4      4889.77   0.0112481 28.924    325.067   22.6273   
55.5      4845.01   0.0112484 28.7637   325.228   22.6288   
55.6      4803.22   0.0112482 28.615    325.376   22.6479   
55.7      4766.5    0.0112483 28.4644   325.527   22.6684   
55.8      4726.04   0.0112483 28.3055   325.686   22.6013   
55.9      4684.54   0.0112483 28.151    325.84    22.5951   
56        4643.48   0.0112483 27.9979   325.993   22.5704   
56.1      4604.19   0.0112483 27.844    326.147   22.6316   
56.2      4566.66   0.0112483 27.6931   326.298   22.6482   
56.3      4529.52   0.0112483 27.5314   326.46    22.6098   
56.4      4483.77   0.0112483 27.37     326.621   22.597    
56.5      4443.2    0.0112483 27.2173   326.774   22.5749   
56.6      4403.75   0.0112483 27.063    326.928   22.6374   
56.7      4365.37   0.0112483 26.9027   327.089   22.664    
56.8      4328.58   0.0112483 26.7458   327.246   22.6543   
56.9      4288.82   0.0112483 26.589    327.402   22.6365   
57        4248.28   0.0112483 26.4342   327.557   22.5848   
57.1      4200.95   0.0112483 26.286    327.705   22.6441   
57.2      4170.94   0.0112483 26.1413   327.85    22.6272   
57.3      4135.75   0.0112483 25.9853   328.006   22.6161   
57.4      4093.76   0.0112483 25.8224   328.169   22.6417   
57.5      4053.59   0.0112483 25.6602   328.331   22.632    
57.6      4010.71   0.0112483 25.502    328.489   22.6184   
57.7      3975.38   0.0112483 25.344    328.647   22.6468   
57.8      3927.74   0.0112483 25.1874   328.804   22.6604   
57.9      3891.07   0.0112483 25.0325   328.959   22.6674   
58        3855.94   0.0112483 24.8836   329.108   22.6485   
58.1      3816.62   0.0112483 24.7255   329.266   22.6154   
58.2      3776.36   0.0112483 24.566    329.425   22.6207   
58.3      3734.53   0.0112483 24.4131   329.578   22.6542   
58.4      3700.65   0.0112483 24.251    329.74    22.6704   
58.5      3655.46   0.0112483 24.0887   329.903   22.6588   
58.6      3619.29   0.0112483 23.9385   330.053   22.595    
58.7      3582.81   0.0112483 23.771    330.22    22.6589   
58.8      3540.54   0.0112483 23.6039   330.387   22.6316   
58.9      3500.46   0.0112483 23.4349   330.557   22.6018   
59        3454.25   0.0112483 23.2653   330.726   22.6111   
59.1      3416.74   0.0112483 23.0973   330.894   22.6469   
59.2      3375.72   0.0112483 22.9299   331.061   22.6439   
59.3      3330.02   0.0112483 22.7638   331.228   22.6249   
59.4      3291.62   0.0112483 22.6022   331.389   22.5875   
59.5      3259.18   0.0112483 22.4409   331.551   22.609    
59.6      3212.63   0.0112483 22.2644   331.727   22.5739   
59.7      3172.4    0.0112483 22.0912   331.9     22.5921   
59.8      3135.07   0.0112483 21.9206   332.071   22.629    
59.9      3088.86   0.0112483 21.746    332.245   22.6514   
60        3045.09   0.0112483 21.5706   332.421   22.564    
60.1      3000.71   0.0112483 21.3889   332.603   22.6065   
60.2      2959.1    0.0112483 21.2157   332.776   22.5828   
60.3      2923.69   0.0112483 21.0439   332.948   22.5962   
60.4      2878.55   0.0112483 20.8616   333.13    22.6549   
60.5      2837.19   0.0112483 20.6813   333.31    22.6687   
60.6      2797.3    0.0112483 20.5109   333.481   22.6099   
60.7      2752.92   0.0112483 20.3414   333.65    22.611    
60.8      2716.1    0.0112483 20.1759   333.815   22.6548   
60.9      2682.23   0.0112483 19.9983   333.993   22.6187   
61        2641.16   0.0112483 19.8204   334.171   22.5796   
61.1      2599.29   0.0112483 19.6436   334.348   22.6069   
61.2      2564.31   0.0112483 19.4631   334.528   22.6775   
61.3      2523.37   0.0112483 19.2821   334.709   22.61     
61.4      2488.09   0.0112483 19.0977   334.894   22.6336   
61.5      2447.76   0.0112483 18.9105   335.081   22.6518   
61.6      2408.33   0.0112483 18.7221   335.269   22.586    
61.7      2372.39   0.0112483 18.5357   335.456   22.632    
61.8      2342.21   0.0112483 18.34     335.651   22.6298   
61.9      2318.32   0.0112483 18.1324   335.859   22.6654   
62        2288.18   0.0112483 17.9102   336.081   22.6374   
62.1      2248.41   0.0112483 17.682    336.309   22.6264   
62.2      2217.73   0.0112483 17.4569   336.534   22.6535   
62.3      2185.34   0.0112483 17.2159   336.775   22.5851   
62.4      2154.11   0.0112483 16.9643   337.027   22.5592   
62.5      2110.66   0.0112483 16.7161   337.275   22.5778   
62.6      2074.83   0.0112483 16.4598   337.532   22.6588   
62.7      2032.17   0.0112483 16.1989   337.793   22.5721   
62.8      1993.84   0.0112483 15.9408   338.051   22.613    
62.9      1956.95   0.0112483 15.6779   338.314   22.5982   
63        1922.09   0.0112483 15.4141   338.577   22.6378   
63.1      1880.92   0.0112483 15.1376   338.854   22.6703   
63.2      1839.89   0.0112483 14.875    339.116   22.653    
63.3      1804.94   0.0112483 14.6137   339.378   22.6739   
63.4      1764.11   0.0112483 14.3489   339.643   22.6069   
63.5      1726.64   0.0112483 14.0822   339.909   22.5835   
63.6      1688.11   0.0112483 13.8075   340.184   22.6387   
63.7      1645.84   0.0112483 13.5357   340.456   22.6321   
63.8      1610.8    0.0112483 13.2548   340.737   22.6237   
63.9      1572.56   0.0112483 12.9718   341.02    22.6034   
64        1530.35   0.0112483 12.6856   341.306   22.6179   
64.1      1489.39   0.0112483 12.4043   341.587   22.59     
64.2      1445.89   0.0112483 12.1198   341.872   22.633    
64.3      1408.58   0.0112483 11.8442   342.147   22.6596   
64.4      1371.13   0.0112483 11.5571   342.434   22.5742   
64.5      1327.01   0.0112483 11.2687   342.723   22.5649   
64.6      1289.52   0.0112483 10.9806   343.011   22.6104   
64.7      1252.15   0.0112483 10.6873   343.304   22.6836   
64.8      1212.38   0.0112483 10.3929   343.598   22.6005   
64.9      1165.25   0.0112483 10.1026   343.889   22.6363   
65        1128.1    0.0112483 9.81089   344.181   22.6573   
65.1      1084.89   0.0112483 9.52239   344.469   22.6023   
65.2      1048.39   0.0112483 9.23198   344.759   22.5886   
65.3      1009.1    0.0112483 8.9312    345.06    22.61     
65.4      967.614   0.0112483 8.63424   345.357   22.6089   
65.5      931.205   0.0112483 8.33471   345.657   22.6398   
65.6      888.309   0.0112483 8.0339    345.958   22.6296   
65.7      848.427   0.0112483 7.73366   346.258   22.5726   
65.8      805.259   0.0112483 7.43979   346.552   22.6562   
65.9      772.553   0.0112483 7.14325   346.848   22.6606   
66        730.37    0.0112483 6.83544   347.156   22.5728   
66.1      690.806   0.0112483 6.53448   347.457   22.6088   
66.2      652.637   0.0112483 6.23183   347.76    22.6326   
66.3      613.252   0.0112483 5.93582   348.056   22.6281   
66.4      577.998   0.0112483 5.6334    348.358   22.6163   
66.5      537.868   0.0112483 5.32024   348.671   22.5713   
66.6      499.442   0.0112483 5.01817   348.973   22.5932   
66.7      464.173   0.0112485 4.70814   349.283   22.6132   
66.8      421.72    0.0112482 4.38634   349.605   22.6121   
66.9      380.631   0.0112487 4.07007   349.921   22.6658   
67        343       0.0112478 3.74914   350.242   22.6532   
67.1      305.225   0.0112493 3.42909   350.562   22.6674   
67.2      268.623   0.0112469 3.10796   350.883   22.6259   
67.3      227.299   0.0112507 2.7765    351.215   22.6408   
67.4      190.483   0.0112445 2.44281   351.549   22.6548   
67.5      148.861   0.0112558 2.10626   351.885   22.6504   
67.6      116.609   0.0111766 1.7684    352.223   22.6799   
67.7      80.1306   0.0111247 1.41875   352.573   22.5913   
67.8      43.8484   0.0111362 1.0661    352.925   22.5829   
67.9      9.1024    0.01113   0.707659  353.284   22.5322   
68        -17.031   0.0111339 0.333468  353.658   22.6181   
68.1      -46.3369  0.0111314 -0.0439296 354.035   22.6721   

**END